# Phonon frequencies in cm-1
    1           0.000           0.000           0.000         186.533         186.533         186.533         197.490         197.490         197.490         325.211         325.211         325.211
    2           2.653           2.653           5.180         186.523         186.523         186.551         197.481         197.481         197.483         325.165         325.165         325.172
    3           5.305           5.305          10.358         186.493         186.493         186.607         197.457         197.457         197.463         325.027         325.027         325.053
    4           7.958           7.958          15.534         186.441         186.441         186.700         197.418         197.418         197.430         324.796         324.796         324.857
    5          10.610          10.610          20.704         186.366         186.366         186.829         197.366         197.366         197.383         324.475         324.475         324.581
    6          13.262          13.262          25.868         186.266         186.266         186.995         197.305         197.305         197.324         324.062         324.062         324.227
    7          15.913          15.913          31.024         186.136         186.136         187.195         197.240         197.240         197.252         323.558         323.558         323.795
    8          18.564          18.564          36.171         185.972         185.972         187.430         197.167         197.175         197.175         322.965         322.965         323.284
    9          21.214          21.214          41.307         185.770         185.770         187.698         197.071         197.117         197.117         322.283         322.283         322.695
   10          23.863          23.863          46.430         185.526         185.526         187.999         196.962         197.071         197.071         321.513         321.513         322.028
   11          26.511          26.511          51.539         185.232         185.232         188.330         196.842         197.045         197.045         320.656         320.656         321.284
   12          29.157          29.157          56.632         184.885         184.885         188.691         196.711         197.046         197.046         319.713         319.713         320.462
   13          31.802          31.802          61.709         184.480         184.480         189.080         196.570         197.081         197.081         318.686         318.686         319.562
   14          34.446          34.446          66.766         184.013         184.013         189.495         196.419         197.154         197.154         317.577         317.577         318.586
   15          37.088          37.088          71.804         183.480         183.480         189.935         196.259         197.273         197.273         316.386         316.386         317.534
   16          39.728          39.728          76.819         182.879         182.879         190.397         196.089         197.440         197.440         315.116         315.116         316.404
   17          42.366          42.366          81.812         182.209         182.209         190.880         195.912         197.660         197.660         313.768         313.768         315.200
   18          45.001          45.001          86.780         181.470         181.470         191.382         195.727         197.936         197.936         312.345         312.345         313.919
   19          47.633          47.633          91.722         180.662         180.662         191.901         195.536         198.269         198.269         310.849         310.849         312.564
   20          50.262          50.262          96.637         179.787         179.787         192.435         195.339         198.660         198.660         309.281         309.281         311.133
   21          52.888          52.888         101.522         178.845         178.845         192.981         195.137         199.112         199.112         307.645         307.645         309.629
   22          55.510          55.510         106.378         177.838         177.838         193.537         194.930         199.625         199.625         305.942         305.942         308.051
   23          58.128          58.128         111.202         176.768         176.768         194.102         194.719         200.199         200.199         304.175         304.175         306.400
   24          60.741          60.741         115.992         175.637         175.637         194.506         194.673         200.835         200.835         302.347         302.347         304.677
   25          63.349          63.349         120.748         174.447         174.447         194.291         195.247         201.534         201.534         300.460         300.460         302.881
   26          65.952          65.952         125.468         173.199         173.199         194.075         195.824         202.296         202.296         298.518         298.518         301.014
   27          68.550          68.550         130.150         171.896         171.896         193.858         196.399         203.122         203.122         296.522         296.522         299.077
   28          71.141          71.141         134.793         170.538         170.538         193.643         196.972         204.012         204.012         294.477         294.477         297.069
   29          73.725          73.725         139.396         169.129         169.129         193.428         197.541         204.967         204.967         292.386         292.386         294.993
   30          76.301          76.301         143.956         167.668         167.668         193.216         198.103         205.987         205.987         290.250         290.250         292.849
   31          78.870          78.870         148.472         166.158         166.158         193.007         198.657         207.071         207.071         288.075         288.075         290.637
   32          81.430          81.430         152.942         164.601         164.601         192.803         199.202         208.222         208.222         285.863         285.863         288.359
   33          83.981          83.981         157.364         162.997         162.997         192.603         199.735         209.437         209.437         283.617         283.617         286.015
   34          86.523          86.523         161.348         161.348         161.735         192.408         200.255         210.718         210.718         281.340         281.340         283.608
   35          89.054          89.054         159.655         159.655         166.052         192.220         200.763         212.063         212.063         279.038         279.038         281.139
   36          91.573          91.573         157.920         157.920         170.311         192.039         201.257         213.473         213.473         276.712         276.712         278.609
   37          94.081          94.081         156.143         156.143         174.507         191.866         201.740         214.947         214.947         274.367         274.367         276.020
   38          96.576          96.576         154.327         154.327         178.633         191.702         202.214         216.484         216.484         272.006         272.006         273.375
   39          99.058          99.058         152.472         152.472         182.678         191.547         202.684         218.084         218.084         269.632         269.632         270.677
   40         101.526         101.526         150.580         150.580         186.624         191.402         203.163         219.744         219.744         267.250         267.250         267.929
   41         103.979         103.979         148.651         148.651         190.441         191.268         203.677         221.464         221.464         264.863         264.863         265.137
   42         106.415         106.415         146.688         146.688         191.144         194.062         204.281         223.242         223.242         262.307         262.475         262.475
   43         108.835         108.835         144.691         144.691         191.032         197.343         205.111         225.076         225.076         259.448         260.090         260.090
   44         111.236         111.236         142.662         142.662         190.932         199.985         206.451         226.965         226.965         256.575         257.710         257.710
   45         113.618         113.618         140.602         140.602         190.845         201.692         208.573         228.906         228.906         253.707         255.341         255.341
   46         115.978         115.978         138.514         138.514         190.770         202.630         211.281         230.898         230.898         250.877         252.985         252.985
   47         118.314         118.314         136.400         136.400         190.709         203.159         214.158         232.937         232.937         248.139         250.645         250.645
   48         120.622         120.622         134.266         134.266         190.661         203.480         216.908         235.021         235.021         245.589         248.327         248.327
   49         122.887         122.887         132.124         132.124         190.626         203.677         219.278         237.147         237.147         243.394         246.033         246.033
   50         125.056         125.056         130.029         130.029         190.606         203.785         220.956         239.310         239.310         241.831         243.769         243.769
   51         126.490         126.490         128.619         128.619         190.599         203.820         221.578         241.249         241.327         241.327         241.719         241.719
   52         125.056         125.056         130.029         130.029         190.606         203.785         220.956         239.310         239.310         241.831         243.769         243.769
   53         122.887         122.887         132.124         132.124         190.626         203.677         219.278         237.147         237.147         243.394         246.033         246.033
   54         120.622         120.622         134.266         134.266         190.661         203.480         216.908         235.021         235.021         245.589         248.327         248.327
   55         118.314         118.314         136.400         136.400         190.709         203.159         214.158         232.937         232.937         248.139         250.645         250.645
   56         115.978         115.978         138.514         138.514         190.770         202.630         211.281         230.898         230.898         250.877         252.985         252.985
   57         113.618         113.618         140.602         140.602         190.845         201.692         208.573         228.906         228.906         253.707         255.341         255.341
   58         111.236         111.236         142.662         142.662         190.932         199.985         206.451         226.965         226.965         256.575         257.710         257.710
   59         108.835         108.835         144.691         144.691         191.032         197.343         205.111         225.076         225.076         259.448         260.090         260.090
   60         106.415         106.415         146.688         146.688         191.144         194.062         204.281         223.242         223.242         262.307         262.475         262.475
   61         103.979         103.979         148.651         148.651         190.441         191.268         203.677         221.464         221.464         264.863         264.863         265.137
   62         101.526         101.526         150.580         150.580         186.624         191.402         203.163         219.744         219.744         267.250         267.250         267.929
   63          99.058          99.058         152.472         152.472         182.678         191.547         202.684         218.084         218.084         269.632         269.632         270.677
   64          96.576          96.576         154.327         154.327         178.633         191.702         202.214         216.484         216.484         272.006         272.006         273.375
   65          94.081          94.081         156.143         156.143         174.507         191.866         201.740         214.947         214.947         274.367         274.367         276.020
   66          91.573          91.573         157.920         157.920         170.311         192.039         201.257         213.473         213.473         276.712         276.712         278.609
   67          89.054          89.054         159.655         159.655         166.052         192.220         200.763         212.063         212.063         279.038         279.038         281.139
   68          86.523          86.523         161.348         161.348         161.735         192.408         200.255         210.718         210.718         281.340         281.340         283.608
   69          83.981          83.981         157.364         162.997         162.997         192.603         199.735         209.437         209.437         283.617         283.617         286.015
   70          81.430          81.430         152.942         164.601         164.601         192.803         199.202         208.222         208.222         285.863         285.863         288.359
   71          78.870          78.870         148.472         166.158         166.158         193.007         198.657         207.071         207.071         288.075         288.075         290.637
   72          76.301          76.301         143.956         167.668         167.668         193.216         198.103         205.987         205.987         290.250         290.250         292.849
   73          73.725          73.725         139.396         169.129         169.129         193.428         197.541         204.967         204.967         292.386         292.386         294.993
   74          71.141          71.141         134.793         170.538         170.538         193.643         196.972         204.012         204.012         294.477         294.477         297.069
   75          68.550          68.550         130.150         171.896         171.896         193.858         196.399         203.122         203.122         296.522         296.522         299.077
   76          65.952          65.952         125.468         173.199         173.199         194.075         195.824         202.296         202.296         298.518         298.518         301.014
   77          63.349          63.349         120.748         174.447         174.447         194.291         195.247         201.534         201.534         300.460         300.460         302.881
   78          60.741          60.741         115.992         175.637         175.637         194.506         194.673         200.835         200.835         302.347         302.347         304.677
   79          58.128          58.128         111.202         176.768         176.768         194.102         194.719         200.199         200.199         304.175         304.175         306.400
   80          55.510          55.510         106.378         177.838         177.838         193.537         194.930         199.625         199.625         305.942         305.942         308.051
   81          52.888          52.888         101.522         178.845         178.845         192.981         195.137         199.112         199.112         307.645         307.645         309.629
   82          50.262          50.262          96.637         179.787         179.787         192.435         195.339         198.660         198.660         309.281         309.281         311.133
   83          47.633          47.633          91.722         180.662         180.662         191.901         195.536         198.269         198.269         310.849         310.849         312.564
   84          45.001          45.001          86.780         181.470         181.470         191.382         195.727         197.936         197.936         312.345         312.345         313.919
   85          42.366          42.366          81.812         182.209         182.209         190.880         195.912         197.660         197.660         313.768         313.768         315.200
   86          39.728          39.728          76.819         182.879         182.879         190.397         196.089         197.440         197.440         315.116         315.116         316.404
   87          37.088          37.088          71.804         183.480         183.480         189.935         196.259         197.273         197.273         316.386         316.386         317.534
   88          34.446          34.446          66.766         184.013         184.013         189.495         196.419         197.154         197.154         317.577         317.577         318.586
   89          31.802          31.802          61.709         184.480         184.480         189.080         196.570         197.081         197.081         318.686         318.686         319.562
   90          29.157          29.157          56.632         184.885         184.885         188.691         196.711         197.046         197.046         319.713         319.713         320.462
   91          26.511          26.511          51.539         185.232         185.232         188.330         196.842         197.045         197.045         320.656         320.656         321.284
   92          23.863          23.863          46.430         185.526         185.526         187.999         196.962         197.071         197.071         321.513         321.513         322.028
   93          21.214          21.214          41.307         185.770         185.770         187.698         197.071         197.117         197.117         322.283         322.283         322.695
   94          18.564          18.564          36.171         185.972         185.972         187.430         197.167         197.175         197.175         322.965         322.965         323.284
   95          15.913          15.913          31.024         186.136         186.136         187.195         197.240         197.240         197.252         323.558         323.558         323.795
   96          13.262          13.262          25.868         186.266         186.266         186.995         197.305         197.305         197.324         324.062         324.062         324.227
   97          10.610          10.610          20.704         186.366         186.366         186.829         197.366         197.366         197.383         324.475         324.475         324.581
   98           7.958           7.958          15.534         186.441         186.441         186.700         197.418         197.418         197.430         324.796         324.796         324.857
   99           5.305           5.305          10.358         186.493         186.493         186.607         197.457         197.457         197.463         325.027         325.027         325.053
  100           2.653           2.653           5.180         186.523         186.523         186.551         197.481         197.481         197.483         325.165         325.165         325.172
