# Phonon frequencies in cm-1
    1           0.000           0.000           0.000         119.895         138.833         149.262         158.679         186.896         228.513         247.352         268.418         282.881
    2           0.890           0.975           2.124         119.907         138.834         149.264         158.670         186.895         228.519         247.348         268.412         282.878
    3           1.781           1.950           4.249         119.944         138.835         149.271         158.640         186.891         228.536         247.335         268.393         282.870
    4           2.671           2.924           6.372         120.004         138.836         149.283         158.591         186.884         228.564         247.314         268.363         282.855
    5           3.561           3.899           8.496         120.088         138.839         149.300         158.522         186.875         228.604         247.285         268.320         282.835
    6           4.452           4.874          10.619         120.196         138.843         149.321         158.433         186.864         228.655         247.247         268.265         282.809
    7           5.343           5.848          12.741         120.325         138.848         149.347         158.325         186.849         228.718         247.200         268.198         282.777
    8           6.235           6.823          14.862         120.477         138.856         149.378         158.198         186.833         228.791         247.146         268.118         282.739
    9           7.126           7.797          16.982         120.649         138.867         149.413         158.051         186.813         228.875         247.082         268.027         282.696
   10           8.018           8.771          19.101         120.841         138.883         149.454         157.885         186.792         228.970         247.010         267.923         282.646
   11           8.911           9.744          21.219         121.050         138.903         149.499         157.700         186.767         229.076         246.930         267.807         282.591
   12           9.804          10.717          23.335         121.277         138.929         149.548         157.497         186.741         229.193         246.840         267.679         282.531
   13          10.698          11.691          25.450         121.518         138.962         149.602         157.275         186.711         229.319         246.742         267.539         282.464
   14          11.592          12.663          27.563         121.771         139.004         149.661         157.034         186.680         229.456         246.636         267.387         282.392
   15          12.487          13.636          29.674         122.036         139.057         149.725         156.775         186.645         229.603         246.520         267.223         282.314
   16          13.383          14.607          31.783         122.308         139.122         149.793         156.499         186.609         229.760         246.396         267.046         282.231
   17          14.279          15.579          33.889         122.587         139.201         149.866         156.204         186.570         229.926         246.263         266.858         282.142
   18          15.176          16.550          35.993         122.868         139.297         149.943         155.893         186.529         230.102         246.120         266.658         282.047
   19          16.074          17.521          38.095         123.148         139.412         150.025         155.564         186.485         230.287         245.969         266.445         281.947
   20          16.973          18.491          40.194         123.425         139.549         150.111         155.218         186.439         230.481         245.808         266.221         281.841
   21          17.873          19.460          42.290         123.695         139.710         150.202         154.856         186.391         230.683         245.638         265.985         281.730
   22          18.774          20.429          44.383         123.955         139.897         150.297         154.477         186.341         230.894         245.459         265.737         281.613
   23          19.676          21.397          46.473         124.201         140.114         150.397         154.082         186.289         231.113         245.270         265.477         281.490
   24          20.579          22.365          48.559         124.430         140.363         150.501         153.671         186.235         231.341         245.072         265.206         281.362
   25          21.483          23.332          50.643         124.640         140.647         150.609         153.245         186.179         231.576         244.863         264.923         281.229
   26          22.388          24.298          52.722         124.826         140.967         150.722         152.803         186.121         231.818         244.646         264.628         281.090
   27          23.295          25.264          54.797         124.987         141.324         150.839         152.347         186.061         232.067         244.418         264.322         280.946
   28          24.202          26.228          56.869         125.121         141.721         150.961         151.876         185.999         232.324         244.180         264.004         280.797
   29          25.111          27.192          58.936         125.227         142.157         151.086         151.391         185.936         232.587         243.932         263.674         280.642
   30          26.021          28.155          60.999         125.303         142.633         150.891         151.216         185.872         232.857         243.673         263.334         280.483
   31          26.932          29.117          63.058         125.350         143.148         150.378         151.350         185.806         233.134         243.404         262.982         280.318
   32          27.845          30.078          65.112         125.366         143.701         149.852         151.488         185.738         233.416         243.125         262.618         280.147
   33          28.759          31.038          67.161         125.353         144.292         149.312         151.630         185.670         233.704         242.835         262.244         279.972
   34          29.674          31.997          69.205         125.311         144.919         148.759         151.776         185.601         233.998         242.534         261.858         279.792
   35          30.591          32.955          71.244         125.241         145.579         148.194         151.925         185.531         234.297         242.221         261.462         279.606
   36          31.509          33.912          73.277         125.144         146.271         147.616         152.079         185.461         234.602         241.898         261.055         279.416
   37          32.429          34.868          75.305         125.022         146.993         147.027         152.237         185.391         234.911         241.563         260.636         279.221
   38          33.350          35.823          77.327         124.875         146.425         147.742         152.398         185.320         235.225         241.216         260.207         279.021
   39          34.272          36.776          79.343         124.705         145.812         148.517         152.563         185.250         235.544         240.858         259.768         278.816
   40          35.196          37.728          81.353         124.513         145.188         149.315         152.732         185.180         235.867         240.488         259.318         278.606
   41          36.122          38.679          83.356         124.300         144.552         150.134         152.905         185.112         236.195         240.105         258.858         278.391
   42          37.049          39.628          85.353         124.068         143.906         150.972         153.081         185.045         236.526         239.711         258.387         278.172
   43          37.977          40.576          87.343         123.817         143.249         151.827         153.260         184.980         236.862         239.303         257.906         277.948
   44          38.907          41.523          89.327         123.548         142.582         152.696         153.443         184.917         237.201         238.883         257.416         277.720
   45          39.839          42.468          91.302         123.263         141.905         153.579         153.629         184.857         237.544         238.450         256.915         277.487
   46          40.772          43.412          93.271         122.962         141.218         153.819         154.471         184.801         237.890         238.004         256.405         277.250
   47          41.706          44.353          95.231         122.646         140.522         154.012         155.373         184.749         237.545         238.239         255.885         277.008
   48          42.643          45.294          97.184         122.315         139.816         154.207         156.281         184.702         237.072         238.591         255.356         276.762
   49          43.580          46.232          99.128         121.971         139.101         154.406         157.194         184.662         236.585         238.947         254.817         276.511
   50          44.519          47.169         101.063         121.615         138.377         154.608         158.108         184.629         236.085         239.305         254.269         276.257
   51          45.460          48.104         102.989         121.246         137.644         154.813         159.023         184.605         235.570         239.666         253.712         275.998
   52          46.402          49.037         104.905         120.867         136.903         155.021         159.936         184.591         235.040         240.029         253.146         275.735
   53          47.346          49.968         106.809         120.478         136.154         155.232         160.844         184.588         234.497         240.395         252.571         275.468
   54          48.291          50.897         108.701         120.081         135.396         155.445         161.744         184.599         233.938         240.763         251.988         275.197
   55          49.238          51.825         110.577         119.680         134.631         155.661         162.634         184.626         233.364         241.133         251.396         274.922
   56          50.186          52.750         112.429         119.281         133.858         155.879         163.510         184.671         232.776         241.506         250.796         274.643
   57          51.135          53.673         114.239         118.906         133.077         156.100         164.370         184.736         232.171         241.880         250.188         274.360
   58          52.086          54.594         115.921         118.636         132.289         156.323         165.209         184.826         231.552         242.256         249.572         274.074
   59          53.038          55.512         117.008         118.942         131.494         156.548         166.025         184.942         230.916         242.634         248.948         273.784
   60          53.992          56.429         117.013         120.309         130.692         156.776         166.812         185.089         230.265         243.014         248.316         273.490
   61          54.947          57.342         116.657         122.017         129.883         157.005         167.567         185.271         229.598         243.395         247.676         273.193
   62          55.903          58.254         116.217         123.788         129.067         157.237         168.285         185.490         228.914         243.778         247.029         272.892
   63          56.861          59.163         115.743         125.572         128.245         157.470         168.963         185.751         228.214         244.162         246.374         272.588
   64          57.819          60.069         115.250         127.354         127.417         157.705         169.597         186.057         227.498         244.548         245.712         272.280
   65          58.779          60.973         114.742         126.582         129.129         157.942         170.184         186.411         226.765         244.934         245.043         271.969
   66          59.740          61.875         114.222         125.742         130.895         158.180         170.722         186.816         226.015         244.367         245.322         271.655
   67          60.703          62.773         113.692         124.896         132.649         158.419         171.209         187.271         225.249         243.684         245.711         271.338
   68          61.666          63.669         113.152         124.044         134.390         158.660         171.645         187.778         224.465         242.994         246.101         271.017
   69          62.630          64.562         112.602         123.187         136.118         158.902         172.032         188.335         223.665         242.296         246.492         270.694
   70          63.596          65.452         112.044         122.324         137.831         159.145         172.371         188.941         222.848         241.592         246.884         270.367
   71          64.562          66.339         111.478         121.456         139.528         159.389         172.666         189.593         222.014         240.882         247.276         270.038
   72          65.529          67.223         110.903         120.584         141.208         159.634         172.920         190.287         221.162         240.164         247.669         269.705
   73          66.497          68.104         110.320         119.706         142.869         159.879         173.139         191.019         220.294         239.440         248.063         269.370
   74          67.466          68.981         109.729         118.823         144.511         160.125         173.326         191.787         219.409         238.710         248.458         269.033
   75          68.435          69.856         109.130         117.936         146.131         160.371         173.487         192.585         218.507         237.972         248.853         268.692
   76          69.406          70.727         108.524         117.045         147.727         160.617         173.628         193.410         217.588         237.228         249.248         268.349
   77          70.377          71.595         107.911         116.149         149.298         160.863         173.754         194.258         216.652         236.478         249.644         268.004
   78          71.348          72.459         107.290         115.249         150.839         161.109         173.871         195.127         215.699         235.721         250.040         267.656
   79          72.320          73.320         106.662         114.345         152.348         161.355         173.985         196.012         214.730         234.957         250.437         267.305
   80          73.292          74.178         106.027         113.437         153.820         161.600         174.103         196.912         213.744         234.187         250.833         266.952
   81          74.265          75.031         105.385         112.525         155.248         161.844         174.233         197.824         212.742         233.410         251.230         266.597
   82          75.238          75.881         104.737         111.609         156.628         162.087         174.384         198.746         211.724         232.627         251.627         266.240
   83          76.211          76.728         104.081         110.690         157.949         162.329         174.564         199.675         210.690         231.837         252.024         265.881
   84          77.185          77.570         103.419         109.768         159.202         162.569         174.787         200.611         209.640         231.041         252.421         265.519
   85          78.158          78.409         102.751         108.842         160.376         162.808         175.063         201.552         208.575         230.238         252.818         265.156
   86          79.132          79.243         102.076         107.914         161.457         163.044         175.408         202.496         207.494         229.428         253.215         264.791
   87          80.074          80.105         101.394         106.982         162.434         163.278         175.834         203.442         206.398         228.612         253.612         264.423
   88          80.900          81.078         100.707         106.047         163.295         163.509         176.354         204.390         205.288         227.790         254.008         264.054
   89          81.723          82.052         100.013         105.109         163.737         164.033         176.974         204.163         205.338         226.961         254.404         263.683
   90          82.541          83.024          99.313         104.169         163.961         164.647         177.698         203.025         206.285         226.125         254.800         263.311
   91          83.354          83.997          98.607         103.226         164.181         165.140         178.522         201.874         207.231         225.283         255.196         262.936
   92          84.163          84.969          97.896         102.281         164.396         165.523         179.436         200.709         208.176         224.434         255.590         262.560
   93          84.968          85.940          97.178         101.333         164.606         165.807         180.429         199.533         209.118         223.579         255.985         262.183
   94          85.769          86.911          96.455         100.383         164.810         166.007         181.487         198.345         210.057         222.718         256.379         261.804
   95          86.564          87.881          95.726          99.431         165.006         166.136         182.596         197.146         210.993         221.850         256.772         261.424
   96          87.355          88.850          94.991          98.478         165.195         166.205         183.746         195.938         211.925         220.977         257.165         261.042
   97          88.141          89.819          94.251          97.522         165.374         166.225         184.926         194.722         212.853         220.097         257.557         260.659
   98          88.923          90.786          93.506          96.564         165.542         166.205         186.127         193.498         213.777         219.211         257.948         260.275
   99          89.699          91.752          92.755          95.605         165.698         166.152         187.344         192.269         214.696         218.319         258.338         259.890
  100          90.471          91.999          92.718          94.644         165.840         166.070         188.571         191.037         215.609         217.421         258.728         259.504
