# Phonon frequencies in cm-1
    1           0.000           0.000           0.000         981.175         981.175         981.175
    2           4.254           4.254          19.175         981.219         981.219        1211.647
    3           8.509           8.509          38.346         981.353         981.353        1211.346
    4          12.766          12.766          57.505         981.575         981.575        1210.845
    5          17.027          17.027          76.649         981.886         981.886        1210.143
    6          21.292          21.292          95.772         982.285         982.285        1209.241
    7          25.563          25.563         114.868         982.771         982.771        1208.139
    8          29.840          29.840         133.932         983.342         983.342        1206.838
    9          34.124          34.124         152.960         983.999         983.999        1205.338
   10          38.417          38.417         171.945         984.740         984.740        1203.640
   11          42.720          42.720         190.882         985.563         985.563        1201.744
   12          47.032          47.032         209.766         986.466         986.466        1199.651
   13          51.356          51.356         228.592         987.449         987.449        1197.363
   14          55.691          55.691         247.354         988.509         988.509        1194.879
   15          60.038          60.038         266.047         989.645         989.645        1192.201
   16          64.398          64.398         284.665         990.853         990.853        1189.330
   17          68.772          68.772         303.203         992.133         992.133        1186.268
   18          73.159          73.159         321.655         993.481         993.481        1183.016
   19          77.560          77.560         340.016         994.896         994.896        1179.576
   20          81.975          81.975         358.280         996.374         996.374        1175.948
   21          86.404          86.404         376.441         997.914         997.914        1172.136
   22          90.848          90.848         394.494         999.512         999.512        1168.142
   23          95.306          95.306         412.432        1001.166        1001.166        1163.967
   24          99.778          99.778         430.250        1002.873        1002.873        1159.614
   25         104.264         104.264         447.941        1004.629        1004.629        1155.087
   26         108.763         108.763         465.499        1006.433        1006.433        1150.388
   27         113.275         113.275         482.917        1008.281        1008.281        1145.521
   28         117.799         117.799         500.189        1010.171        1010.171        1140.490
   29         122.334         122.334         517.307        1012.098        1012.098        1135.299
   30         126.881         126.881         534.264        1014.060        1014.060        1129.952
   31         131.437         131.437         551.052        1016.055        1016.055        1124.457
   32         136.002         136.002         567.662        1018.079        1018.079        1118.818
   33         140.574         140.574         584.086        1020.128        1020.128        1113.042
   34         145.154         145.154         600.313        1022.201        1022.201        1107.138
   35         149.738         149.738         616.332        1024.294        1024.294        1101.114
   36         154.326         154.326         632.132        1026.403        1026.403        1094.980
   37         158.916         158.916         647.699        1028.527        1028.527        1088.750
   38         163.506         163.506         663.018        1030.662        1030.662        1082.435
   39         168.096         168.096         678.071        1032.805        1032.805        1076.054
   40         172.682         172.682         692.839        1034.954        1034.954        1069.625
   41         177.264         177.264         707.297        1037.105        1037.105        1063.172
   42         181.839         181.839         721.416        1039.256        1039.256        1056.722
   43         186.406         186.406         735.164        1041.405        1041.405        1050.309
   44         190.962         190.962         748.499        1043.549        1043.549        1043.975
   45         195.504         195.504         761.370        1037.770        1045.685        1045.685
   46         200.032         200.032         773.716        1031.756        1047.811        1047.811
   47         204.542         204.542         785.459        1026.013        1049.925        1049.925
   48         209.032         209.032         796.504        1020.634        1052.024        1052.024
   49         213.501         213.501         806.737        1015.738        1054.107        1054.107
   50         217.944         217.944         816.020        1011.463        1056.170        1056.170
   51         222.360         222.360         824.193        1007.971        1058.212        1058.212
   52         226.747         226.747         831.085        1005.435        1060.232        1060.232
   53         231.101         231.101         836.529        1004.026        1062.227        1062.227
   54         235.420         235.420         840.388        1003.883        1064.196        1064.196
   55         239.702         239.702         842.583        1005.088        1066.136        1066.136
   56         243.944         243.944         843.118        1007.642        1068.047        1068.047
   57         248.143         248.143         842.077        1011.463        1069.927        1069.927
   58         252.296         252.296         839.612        1016.407        1071.774        1071.774
   59         256.402         256.402         835.908        1022.291        1073.587        1073.587
   60         260.456         260.456         831.157        1028.929        1075.366        1075.366
   61         264.456         264.456         825.541        1036.144        1077.108        1077.108
   62         268.400         268.400         819.219        1043.786        1078.813        1078.813
   63         272.286         272.286         812.325        1051.726        1080.480        1080.480
   64         276.109         276.109         804.970        1059.859        1082.108        1082.108
   65         279.868         279.868         797.246        1068.102        1083.696        1083.696
   66         283.560         283.560         789.229        1076.387        1085.243        1085.243
   67         287.182         287.182         780.981        1084.660        1086.750        1086.750
   68         290.731         290.731         772.556        1088.214        1088.214        1092.877
   69         294.206         294.206         763.999        1089.636        1089.636        1101.004
   70         297.603         297.603         755.349        1091.015        1091.015        1109.010
   71         300.920         300.920         746.640        1092.351        1092.351        1116.873
   72         304.155         304.155         737.905        1093.643        1093.643        1124.572
   73         307.305         307.305         729.171        1094.891        1094.891        1132.091
   74         310.367         310.367         720.465        1096.095        1096.095        1139.416
   75         313.340         313.340         711.812        1097.255        1097.255        1146.535
   76         316.221         316.221         703.237        1098.370        1098.370        1153.437
   77         319.008         319.008         694.762        1099.441        1099.441        1160.114
   78         321.699         321.699         686.410        1100.467        1100.467        1166.558
   79         324.292         324.292         678.203        1101.449        1101.449        1172.763
   80         326.784         326.784         670.163        1102.386        1102.386        1178.722
   81         329.174         329.174         662.311        1103.278        1103.278        1184.430
   82         331.459         331.459         654.669        1104.126        1104.126        1189.883
   83         333.639         333.639         647.257        1104.929        1104.929        1195.076
   84         335.711         335.711         640.096        1105.687        1105.687        1200.006
   85         337.673         337.673         633.208        1106.402        1106.402        1204.670
   86         339.525         339.525         626.613        1107.072        1107.072        1209.063
   87         341.264         341.264         620.330        1107.698        1107.698        1213.184
   88         342.890         342.890         614.379        1108.280        1108.280        1217.031
   89         344.400         344.400         608.780        1108.818        1108.818        1220.600
   90         345.795         345.795         603.552        1109.313        1109.313        1223.890
   91         347.071         347.071         598.711        1109.764        1109.764        1226.900
   92         348.230         348.230         594.275        1110.172        1110.172        1229.628
   93         349.269         349.269         590.259        1110.536        1110.536        1232.072
   94         350.187         350.187         586.679        1110.858        1110.858        1234.231
   95         350.985         350.985         583.548        1111.136        1111.136        1236.105
   96         351.661         351.661         580.877        1111.371        1111.371        1237.691
   97         352.215         352.215         578.678        1111.563        1111.563        1238.990
   98         352.646         352.646         576.958        1111.713        1111.713        1240.001
   99         352.955         352.955         575.724        1111.819        1111.819        1240.724
  100         353.140         353.140         574.982        1111.884        1111.884        1241.158
  101         353.201         353.201         574.734        1111.905        1111.905        1241.302
  102         353.306         353.597         574.709        1111.800        1111.927        1241.262
  103         353.621         354.781         574.632        1111.485        1111.994        1241.140
  104         354.143         356.744         574.504        1110.960        1112.105        1240.937
  105         354.872         359.471         574.324        1110.226        1112.261        1240.654
  106         355.805         362.940         574.093        1109.282        1112.461        1240.291
  107         356.938         367.126         573.810        1108.129        1112.706        1239.848
  108         358.267         371.999         573.474        1106.767        1112.996        1239.326
  109         359.787         377.526         573.086        1105.197        1113.331        1238.727
  110         361.492         383.670         572.645        1103.419        1113.711        1238.050
  111         363.378         390.396         572.150        1101.433        1114.136        1237.296
  112         365.437         397.662         571.601        1099.241        1114.607        1236.468
  113         367.662         405.432         570.997        1096.844        1115.122        1235.567
  114         370.047         413.666         570.337        1094.241        1115.684        1234.593
  115         372.583         422.324         569.622        1091.434        1116.292        1233.548
  116         375.262         431.371         568.850        1088.425        1116.945        1232.434
  117         378.077         440.768         568.020        1085.215        1117.645        1231.252
  118         381.019         450.482         567.132        1081.804        1118.390        1230.005
  119         384.080         460.478         566.184        1078.195        1119.183        1228.693
  120         387.251         470.723         565.177        1074.390        1120.021        1227.320
  121         390.524         481.187         564.108        1070.391        1120.906        1225.887
  122         393.890         491.841         562.978        1066.200        1121.838        1224.397
  123         397.341         502.656         561.785        1061.820        1122.816        1222.851
  124         400.868         513.605         560.528        1057.254        1123.841        1221.251
  125         404.464         524.662         559.207        1052.506        1124.912        1219.601
  126         408.119         535.803         557.820        1047.579        1126.030        1217.902
  127         411.827         547.005         556.367        1042.478        1127.193        1216.158
  128         415.580         554.847         558.243        1037.209        1128.403        1214.369
  129         419.370         553.259         569.495        1031.776        1129.658        1212.540
  130         423.189         551.603         580.739        1026.188        1130.959        1210.673
  131         427.032         549.876         591.952        1020.451        1132.304        1208.770
  132         430.890         548.080         603.112        1014.575        1133.694        1206.834
  133         434.758         546.212         614.197        1008.571        1135.128        1204.867
  134         438.629         544.273         625.181        1002.451        1136.605        1202.873
  135         442.498         542.262         636.040         996.230        1138.125        1200.855
  136         446.358         540.178         646.747         989.926        1139.686        1198.813
  137         450.204         538.021         657.271         983.558        1141.288        1196.753
  138         454.032         535.791         667.579         977.153        1142.931        1194.676
  139         457.835         533.488         677.635         970.741        1144.613        1192.584
  140         461.610         531.110         687.393         964.358        1146.332        1190.482
  141         465.351         528.659         696.804         958.048        1148.088        1188.371
  142         469.056         526.134         705.808         951.867        1149.880        1186.253
  143         472.720         523.536         714.334         945.880        1151.706        1184.133
  144         476.339         520.865         722.296         940.167        1153.564        1182.012
  145         479.911         518.121         729.596         934.824        1155.454        1179.892
  146         483.431         515.305         736.119         929.963        1157.373        1177.777
  147         486.898         512.417         741.734         925.711        1159.320        1175.668
  148         490.308         509.459         746.303         922.204        1161.293        1173.569
  149         493.659         506.432         749.691         919.577        1163.290        1171.481
  150         496.949         503.337         751.778         917.947        1165.310        1169.407
  151         500.176         500.176         752.484         917.393        1167.349        1167.349
  152         496.949         503.337         751.778         917.947        1165.310        1169.407
  153         493.659         506.432         749.691         919.577        1163.290        1171.481
  154         490.308         509.459         746.303         922.204        1161.293        1173.569
  155         486.898         512.417         741.734         925.711        1159.320        1175.668
  156         483.431         515.305         736.119         929.963        1157.373        1177.777
  157         479.911         518.121         729.596         934.824        1155.454        1179.892
  158         476.339         520.865         722.296         940.167        1153.564        1182.012
  159         472.720         523.536         714.334         945.880        1151.706        1184.133
  160         469.056         526.134         705.808         951.867        1149.880        1186.253
  161         465.351         528.659         696.804         958.048        1148.088        1188.371
  162         461.610         531.110         687.393         964.358        1146.332        1190.482
  163         457.835         533.488         677.635         970.741        1144.613        1192.584
  164         454.032         535.791         667.579         977.153        1142.931        1194.676
  165         450.204         538.021         657.271         983.558        1141.288        1196.753
  166         446.358         540.178         646.747         989.926        1139.686        1198.813
  167         442.498         542.262         636.040         996.230        1138.125        1200.855
  168         438.629         544.273         625.181        1002.451        1136.605        1202.873
  169         434.758         546.212         614.197        1008.571        1135.128        1204.867
  170         430.890         548.080         603.112        1014.575        1133.694        1206.834
  171         427.032         549.876         591.952        1020.451        1132.304        1208.770
  172         423.189         551.603         580.739        1026.188        1130.959        1210.673
  173         419.370         553.259         569.495        1031.776        1129.658        1212.540
  174         415.580         554.847         558.243        1037.209        1128.403        1214.369
  175         411.827         547.005         556.367        1042.478        1127.193        1216.158
  176         408.119         535.803         557.820        1047.579        1126.030        1217.902
  177         404.464         524.662         559.207        1052.506        1124.912        1219.601
  178         400.868         513.605         560.528        1057.254        1123.841        1221.251
  179         397.341         502.656         561.785        1061.820        1122.816        1222.851
  180         393.890         491.841         562.978        1066.200        1121.838        1224.397
  181         390.524         481.187         564.108        1070.391        1120.906        1225.887
  182         387.251         470.723         565.177        1074.390        1120.021        1227.320
  183         384.080         460.478         566.184        1078.195        1119.183        1228.693
  184         381.019         450.482         567.132        1081.804        1118.390        1230.005
  185         378.077         440.768         568.020        1085.215        1117.645        1231.252
  186         375.262         431.371         568.850        1088.425        1116.945        1232.434
  187         372.583         422.324         569.622        1091.434        1116.292        1233.548
  188         370.047         413.666         570.337        1094.241        1115.684        1234.593
  189         367.662         405.432         570.997        1096.844        1115.122        1235.567
  190         365.437         397.662         571.601        1099.241        1114.607        1236.468
  191         363.378         390.396         572.150        1101.433        1114.136        1237.296
  192         361.492         383.670         572.645        1103.419        1113.711        1238.050
  193         359.787         377.526         573.086        1105.197        1113.331        1238.727
  194         358.267         371.999         573.474        1106.767        1112.996        1239.326
  195         356.938         367.126         573.810        1108.129        1112.706        1239.848
