# Phonon frequencies in cm-1
    1           0.000           0.000           0.000          53.392          53.392          53.392
    2           0.653           0.653           1.266          53.390          53.390          53.403
    3           1.306           1.306           2.532          53.382          53.382          53.436
    4           1.958           1.958           3.798          53.371          53.371          53.490
    5           2.610           2.610           5.062          53.354          53.354          53.567
    6           3.261           3.261           6.326          53.333          53.333          53.664
    7           3.911           3.911           7.588          53.307          53.307          53.783
    8           4.559           4.559           8.848          53.276          53.276          53.923
    9           5.207           5.207          10.106          53.241          53.241          54.084
   10           5.852           5.852          11.361          53.201          53.201          54.265
   11           6.496           6.496          12.614          53.156          53.156          54.466
   12           7.138           7.138          13.864          53.107          53.107          54.686
   13           7.777           7.777          15.111          53.054          53.054          54.926
   14           8.414           8.414          16.354          52.996          52.996          55.184
   15           9.049           9.049          17.593          52.934          52.934          55.460
   16           9.681           9.681          18.828          52.868          52.868          55.753
   17          10.309          10.309          20.059          52.798          52.798          56.064
   18          10.935          10.935          21.284          52.723          52.723          56.391
   19          11.557          11.557          22.505          52.645          52.645          56.733
   20          12.176          12.176          23.721          52.563          52.563          57.091
   21          12.791          12.791          24.931          52.477          52.477          57.463
   22          13.402          13.402          26.135          52.387          52.387          57.848
   23          14.009          14.009          27.332          52.293          52.293          58.247
   24          14.612          14.612          28.524          52.196          52.196          58.658
   25          15.210          15.210          29.709          52.096          52.096          59.081
   26          15.804          15.804          30.886          51.993          51.993          59.514
   27          16.393          16.393          32.057          51.886          51.886          59.958
   28          16.977          16.977          33.220          51.776          51.776          60.412
   29          17.556          17.556          34.375          51.663          51.663          60.875
   30          18.130          18.130          35.522          51.548          51.548          61.346
   31          18.698          18.698          36.660          51.430          51.430          61.824
   32          19.261          19.261          37.790          51.309          51.309          62.309
   33          19.819          19.819          38.912          51.186          51.186          62.801
   34          20.371          20.371          40.024          51.061          51.061          63.298
   35          20.916          20.916          41.126          50.933          50.933          63.800
   36          21.456          21.456          42.219          50.804          50.804          64.306
   37          21.990          21.990          43.303          50.672          50.672          64.816
   38          22.517          22.517          44.376          50.539          50.539          65.328
   39          23.038          23.038          45.439          50.404          50.404          65.844
   40          23.553          23.553          46.491          50.268          50.268          66.361
   41          24.061          24.061          47.532          50.131          50.131          66.879
   42          24.562          24.562          48.562          49.992          49.992          67.397
   43          25.057          25.057          49.581          49.852          49.852          67.916
   44          25.544          25.544          49.711          49.711          50.589          68.434
   45          26.025          26.025          49.570          49.570          51.585          68.952
   46          26.499          26.499          49.428          49.428          52.568          69.467
   47          26.966          26.966          49.285          49.285          53.540          69.981
   48          27.425          27.425          49.142          49.142          54.499          70.491
   49          27.878          27.878          48.998          48.998          55.446          70.999
   50          28.323          28.323          48.854          48.854          56.380          71.503
   51          28.761          28.761          48.711          48.711          57.301          72.003
   52          29.191          29.191          48.567          48.567          58.208          72.499
   53          29.614          29.614          48.423          48.423          59.103          72.989
   54          30.030          30.030          48.280          48.280          59.983          73.474
   55          30.438          30.438          48.137          48.137          60.850          73.953
   56          30.839          30.839          47.994          47.994          61.703          74.426
   57          31.233          31.233          47.852          47.852          62.542          74.892
   58          31.619          31.619          47.711          47.711          63.367          75.351
   59          31.997          31.997          47.570          47.570          64.177          75.803
   60          32.368          32.368          47.430          47.430          64.973          76.247
   61          32.732          32.732          47.291          47.291          65.753          76.682
   62          33.088          33.088          47.153          47.153          66.519          77.109
   63          33.437          33.437          47.015          47.015          67.270          77.527
   64          33.778          33.778          46.879          46.879          68.005          77.936
   65          34.112          34.112          46.743          46.743          68.725          78.335
   66          34.439          34.439          46.609          46.609          69.430          78.724
   67          34.758          34.758          46.476          46.476          70.119          79.103
   68          35.070          35.070          46.344          46.344          70.792          79.471
   69          35.375          35.375          46.213          46.213          71.449          79.829
   70          35.673          35.673          46.083          46.083          72.090          80.176
   71          35.964          35.964          45.954          45.954          72.715          80.511
   72          36.248          36.248          45.826          45.826          73.323          80.835
   73          36.525          36.525          45.699          45.699          73.915          81.147
   74          36.795          36.795          45.574          45.574          74.491          81.447
   75          37.058          37.058          45.449          45.449          75.050          81.735
   76          37.315          37.315          45.326          45.326          75.592          82.010
   77          37.565          37.565          45.203          45.203          76.117          82.272
   78          37.809          37.809          45.081          45.081          76.625          82.522
   79          38.046          38.046          44.961          44.961          77.116          82.759
   80          38.277          38.277          44.841          44.841          77.590          82.982
   81          38.502          38.502          44.722          44.722          78.046          83.192
   82          38.720          38.720          44.603          44.603          78.485          83.389
   83          38.933          38.933          44.485          44.485          78.907          83.572
   84          39.139          39.139          44.368          44.368          79.310          83.742
   85          39.340          39.340          44.252          44.252          79.695          83.898
   86          39.535          39.535          44.136          44.136          80.062          84.040
   87          39.724          39.724          44.021          44.021          80.411          84.169
   88          39.907          39.907          43.906          43.906          80.741          84.284
   89          40.085          40.085          43.792          43.792          81.053          84.386
   90          40.256          40.256          43.679          43.679          81.344          84.475
   91          40.421          40.421          43.567          43.567          81.616          84.551
   92          40.580          40.580          43.457          43.457          81.868          84.615
   93          40.732          40.732          43.348          43.348          82.098          84.666
   94          40.876          40.876          43.242          43.242          82.306          84.707
   95          41.011          41.011          43.139          43.139          82.492          84.738
   96          41.136          41.136          43.042          43.042          82.653          84.761
   97          41.248          41.248          42.952          42.952          82.788          84.776
   98          41.344          41.344          42.874          42.874          82.895          84.785
   99          41.418          41.418          42.812          42.812          82.974          84.790
  100          41.466          41.466          42.772          42.772          83.021          84.792
  101          41.483          41.483          42.758          42.758          83.037          84.792
  102          41.479          41.483          42.754          42.757          83.037          84.791
  103          41.465          41.481          42.741          42.755          83.034          84.788
  104          41.442          41.478          42.721          42.752          83.030          84.783
  105          41.409          41.475          42.692          42.748          83.025          84.775
  106          41.368          41.470          42.654          42.743          83.018          84.766
  107          41.317          41.464          42.609          42.736          83.010          84.754
  108          41.257          41.457          42.555          42.728          83.000          84.740
  109          41.188          41.449          42.493          42.719          82.989          84.724
  110          41.110          41.440          42.423          42.708          82.976          84.706
  111          41.023          41.430          42.345          42.696          82.962          84.686
  112          40.926          41.418          42.259          42.683          82.947          84.665
  113          40.821          41.405          42.164          42.668          82.930          84.641
  114          40.706          41.391          42.062          42.651          82.912          84.616
  115          40.583          41.375          41.951          42.633          82.893          84.588
  116          40.451          41.358          41.833          42.612          82.873          84.559
  117          40.309          41.339          41.707          42.591          82.852          84.529
  118          40.159          41.319          41.572          42.567          82.830          84.497
  119          40.000          41.297          41.430          42.541          82.807          84.463
  120          39.832          41.273          41.281          42.513          82.784          84.428
  121          39.656          41.123          41.248          42.483          82.760          84.391
  122          39.471          40.958          41.221          42.451          82.735          84.353
  123          39.277          40.786          41.191          42.416          82.709          84.314
  124          39.075          40.606          41.160          42.379          82.683          84.274
  125          38.865          40.419          41.127          42.339          82.657          84.233
  126          38.646          40.224          41.091          42.297          82.631          84.191
  127          38.419          40.022          41.053          42.252          82.604          84.148
  128          38.183          39.813          41.013          42.204          82.578          84.105
  129          37.940          39.597          40.971          42.153          82.551          84.061
  130          37.688          39.375          40.925          42.099          82.524          84.016
  131          37.428          39.145          40.878          42.042          82.498          83.971
  132          37.161          38.909          40.827          41.982          82.472          83.925
  133          36.886          38.666          40.774          41.918          82.447          83.880
  134          36.603          38.416          40.718          41.851          82.422          83.834
  135          36.312          38.160          40.659          41.780          82.397          83.788
  136          36.014          37.898          40.597          41.706          82.374          83.743
  137          35.709          37.630          40.532          41.628          82.351          83.697
  138          35.396          37.356          40.463          41.546          82.329          83.652
  139          35.077          37.076          40.392          41.461          82.308          83.607
  140          34.750          36.791          40.317          41.372          82.288          83.563
  141          34.416          36.499          40.239          41.278          82.269          83.519
  142          34.076          36.203          40.158          41.181          82.251          83.476
  143          33.729          35.901          40.073          41.080          82.235          83.434
  144          33.376          35.595          39.985          40.975          82.220          83.392
  145          33.016          35.283          39.893          40.866          82.206          83.352
  146          32.650          34.967          39.798          40.753          82.194          83.312
  147          32.279          34.646          39.700          40.636          82.183          83.274
  148          31.901          34.321          39.598          40.514          82.174          83.237
  149          31.518          33.992          39.493          40.390          82.166          83.201
  150          31.129          33.659          39.384          40.261          82.159          83.166
  151          30.735          33.322          39.272          40.128          82.155          83.132
  152          30.335          32.982          39.157          39.992          82.152          83.100
  153          29.931          32.639          39.038          39.852          82.150          83.070
  154          29.522          32.293          38.917          39.709          82.150          83.041
  155          29.109          31.944          38.792          39.562          82.152          83.013
  156          28.691          31.593          38.664          39.412          82.155          82.987
  157          28.270          31.239          38.534          39.259          82.160          82.962
  158          27.844          30.884          38.401          39.103          82.166          82.939
  159          27.415          30.526          38.265          38.944          82.174          82.917
  160          26.983          30.168          38.127          38.783          82.183          82.897
  161          26.547          29.809          37.987          38.619          82.194          82.879
  162          26.109          29.449          37.845          38.453          82.206          82.862
  163          25.668          29.088          37.701          38.286          82.219          82.846
  164          25.226          28.728          37.556          38.116          82.234          82.832
  165          24.781          28.368          37.409          37.946          82.249          82.820
  166          24.336          28.009          37.261          37.774          82.266          82.809
  167          23.889          27.651          37.112          37.602          82.283          82.799
  168          23.441          27.294          36.963          37.429          82.302          82.790
  169          22.993          26.940          36.813          37.256          82.321          82.783
  170          22.546          26.588          36.663          37.083          82.341          82.777
  171          22.099          26.238          36.513          36.911          82.362          82.772
  172          21.653          25.892          36.364          36.739          82.383          82.768
  173          21.209          25.550          36.216          36.569          82.405          82.766
  174          20.768          25.212          36.069          36.400          82.427          82.764
  175          20.329          24.880          35.923          36.233          82.449          82.763
  176          19.893          24.552          35.780          36.068          82.471          82.763
  177          19.462          24.230          35.638          35.906          82.494          82.764
  178          19.036          23.915          35.499          35.747          82.516          82.765
  179          18.615          23.607          35.363          35.591          82.539          82.767
  180          18.201          23.306          35.230          35.440          82.561          82.769
  181          17.794          23.014          35.100          35.292          82.583          82.772
  182          17.396          22.730          34.974          35.148          82.604          82.776
  183          17.007          22.456          34.852          35.010          82.625          82.779
  184          16.628          22.193          34.735          34.876          82.645          82.783
  185          16.261          21.939          34.623          34.748          82.665          82.787
  186          15.906          21.698          34.515          34.626          82.684          82.792
  187          15.565          21.468          34.413          34.511          82.702          82.796
  188          15.239          21.251          34.317          34.401          82.719          82.800
  189          14.930          21.046          34.227          34.299          82.735          82.804
  190          14.638          20.856          34.142          34.203          82.750          82.809
  191          14.366          20.680          34.065          34.115          82.764          82.812
  192          14.114          20.519          33.994          34.035          82.777          82.816
  193          13.884          20.374          33.930          33.962          82.788          82.820
  194          13.678          20.244          33.872          33.897          82.799          82.823
  195          13.496          20.131          33.823          33.841          82.808          82.825
