# Phonon frequencies in cm-1
    1           0.000           0.000           0.000         148.428         148.428         148.428         417.720         417.720         417.720
    2           1.577           1.577           3.491         148.475         148.475         417.683         417.734         417.734         507.552
    3           3.153           3.153           6.981         148.617         148.617         417.570         417.774         417.774         507.579
    4           4.728           4.728          10.467         148.853         148.853         417.382         417.840         417.840         507.623
    5           6.301           6.301          13.947         149.182         149.182         417.119         417.933         417.933         507.685
    6           7.873           7.873          17.421         149.603         149.603         416.781         418.052         418.052         507.765
    7           9.443           9.443          20.886         150.113         150.113         416.368         418.197         418.197         507.863
    8          11.009          11.009          24.340         150.711         150.711         415.880         418.367         418.367         507.978
    9          12.572          12.572          27.783         151.393         151.393         415.317         418.562         418.562         508.111
   10          14.132          14.132          31.211         152.158         152.158         414.679         418.782         418.782         508.262
   11          15.688          15.688          34.624         153.001         153.001         413.966         419.025         419.025         508.431
   12          17.238          17.238          38.019         153.920         153.920         413.179         419.291         419.291         508.618
   13          18.784          18.784          41.396         154.910         154.910         412.317         419.579         419.579         508.822
   14          20.325          20.325          44.752         155.968         155.968         411.380         419.889         419.889         509.044
   15          21.860          21.860          48.087         157.090         157.090         410.370         420.219         420.219         509.284
   16          23.389          23.389          51.398         158.272         158.272         409.285         420.569         420.569         509.542
   17          24.911          24.911          54.684         159.508         159.508         408.127         420.937         420.937         509.817
   18          26.426          26.426          57.944         160.796         160.796         406.895         421.324         421.324         510.110
   19          27.935          27.935          61.177         162.131         162.131         405.589         421.727         421.727         510.421
   20          29.436          29.436          64.380         163.507         163.507         404.210         422.145         422.145         510.749
   21          30.929          30.929          67.553         164.921         164.921         402.758         422.578         422.578         511.094
   22          32.415          32.415          70.695         166.369         166.369         401.233         423.025         423.025         511.457
   23          33.892          33.892          73.804         167.845         167.845         399.636         423.483         423.483         511.838
   24          35.361          35.361          76.879         169.346         169.346         397.966         423.953         423.953         512.235
   25          36.821          36.821          79.920         170.867         170.867         396.225         424.432         424.432         512.649
   26          38.273          38.273          82.924         172.404         172.404         394.413         424.919         424.919         513.081
   27          39.715          39.715          85.892         173.953         173.953         392.529         425.415         425.415         513.528
   28          41.149          41.149          88.822         175.509         175.509         390.575         425.916         425.916         513.992
   29          42.573          42.573          91.714         177.070         177.070         388.551         426.422         426.422         514.472
   30          43.988          43.988          94.566         178.632         178.632         386.457         426.932         426.932         514.968
   31          45.394          45.394          97.378         180.190         180.190         384.294         427.444         427.444         515.480
   32          46.790          46.790         100.149         181.741         181.741         382.063         427.958         427.958         516.006
   33          48.176          48.176         102.879         183.282         183.282         379.764         428.471         428.471         516.548
   34          49.554          49.554         105.567         184.810         184.810         377.397         428.984         428.984         517.104
   35          50.921          50.921         108.212         186.321         186.321         374.964         429.494         429.494         517.673
   36          52.280          52.280         110.815         187.813         187.813         372.466         430.002         430.002         518.257
   37          53.628          53.628         113.374         189.283         189.283         369.902         430.505         430.505         518.853
   38          54.968          54.968         115.890         190.728         190.728         367.275         431.003         431.003         519.462
   39          56.298          56.298         118.361         192.146         192.146         364.584         431.494         431.494         520.083
   40          57.619          57.619         120.789         193.534         193.534         361.831         431.978         431.978         520.716
   41          58.931          58.931         123.173         194.891         194.891         359.017         432.454         432.454         521.359
   42          60.233          60.233         125.511         196.213         196.213         356.142         432.921         432.921         522.013
   43          61.527          61.527         127.806         197.500         197.500         353.209         433.378         433.378         522.676
   44          62.812          62.812         130.056         198.749         198.749         350.218         433.824         433.824         523.348
   45          64.089          64.089         132.261         199.959         199.959         347.170         434.259         434.259         524.029
   46          65.356          65.356         134.421         201.129         201.129         344.067         434.682         434.682         524.717
   47          66.616          66.616         136.538         202.256         202.256         340.911         435.093         435.093         525.412
   48          67.867          67.867         138.609         203.340         203.340         337.702         435.490         435.490         526.113
   49          69.110          69.110         140.637         204.380         204.380         334.443         435.874         435.874         526.819
   50          70.345          70.345         142.620         205.375         205.375         331.135         436.243         436.243         527.530
   51          71.573          71.573         144.559         206.324         206.324         327.780         436.598         436.598         528.244
   52          72.792          72.792         146.455         207.225         207.225         324.379         436.939         436.939         528.961
   53          74.004          74.004         148.307         208.080         208.080         320.935         437.264         437.264         529.680
   54          75.209          75.209         150.116         208.887         208.887         317.450         437.573         437.573         530.401
   55          76.405          76.405         151.881         209.646         209.646         313.926         437.868         437.868         531.122
   56          77.595          77.595         153.604         210.357         210.357         310.366         438.146         438.146         531.842
   57          78.777          78.777         155.285         211.020         211.020         306.771         438.409         438.409         532.562
   58          79.951          79.951         156.923         211.635         211.635         303.144         438.657         438.657         533.279
   59          81.118          81.118         158.520         212.202         212.202         299.489         438.888         438.888         533.993
   60          82.278          82.278         160.075         212.721         212.721         295.807         439.105         439.105         534.703
   61          83.429          83.429         161.588         213.194         213.194         292.103         439.306         439.306         535.408
   62          84.573          84.573         163.061         213.620         213.620         288.378         439.492         439.492         536.108
   63          85.709          85.709         164.493         214.000         214.000         284.637         439.663         439.663         536.802
   64          86.836          86.836         165.885         214.335         214.335         280.882         439.819         439.819         537.488
   65          87.954          87.954         167.236         214.626         214.626         277.118         439.962         439.962         538.166
   66          89.064          89.064         168.548         214.875         214.875         273.348         440.090         440.090         538.836
   67          90.163          90.163         169.820         215.081         215.081         269.577         440.205         440.205         539.496
   68          91.253          91.253         171.052         215.246         215.246         265.808         440.307         440.307         540.146
   69          92.331          92.331         172.246         215.373         215.373         262.046         440.397         440.397         540.785
   70          93.398          93.398         173.401         215.461         215.461         258.296         440.475         440.475         541.411
   71          94.453          94.453         174.518         215.514         215.514         254.562         440.541         440.541         542.026
   72          95.495          95.495         175.596         215.532         215.532         250.850         440.597         440.597         542.627
   73          96.523          96.523         176.636         215.517         215.517         247.165         440.642         440.642         543.214
   74          97.536          97.536         177.638         215.471         215.471         243.512         440.678         440.678         543.786
   75          98.533          98.533         178.603         215.396         215.396         239.898         440.705         440.705         544.343
   76          99.513          99.513         179.530         215.295         215.295         236.328         440.724         440.724         544.885
   77         100.474         100.474         180.419         215.169         215.169         232.810         440.735         440.735         545.410
   78         101.416         101.416         181.272         215.021         215.021         229.348         440.739         440.739         545.918
   79         102.336         102.336         182.087         214.852         214.852         225.951         440.737         440.737         546.408
   80         103.233         103.233         182.866         214.666         214.666         222.626         440.729         440.729         546.880
   81         104.106         104.106         183.607         214.465         214.465         219.379         440.716         440.716         547.334
   82         104.953         104.953         184.312         214.250         214.250         216.218         440.699         440.699         547.769
   83         105.772         105.772         184.981         213.152         214.026         214.026         440.679         440.679         548.184
   84         106.562         106.562         185.612         210.187         213.794         213.794         440.655         440.655         548.579
   85         107.320         107.320         186.208         207.333         213.557         213.557         440.629         440.629         548.953
   86         108.045         108.045         186.767         204.597         213.318         213.318         440.601         440.601         549.307
   87         108.735         108.735         187.290         201.987         213.079         213.079         440.572         440.572         549.640
   88         109.388         109.388         187.776         199.512         212.843         212.843         440.542         440.542         549.951
   89         110.002         110.002         188.226         197.179         212.612         212.612         440.512         440.512         550.240
   90         110.575         110.575         188.641         194.998         212.389         212.389         440.483         440.483         550.508
   91         111.105         111.105         189.019         192.975         212.177         212.177         440.454         440.454         550.753
   92         111.591         111.591         189.361         191.119         211.977         211.977         440.427         440.427         550.975
   93         112.031         112.031         189.436         189.667         211.791         211.791         440.402         440.402         551.175
   94         112.424         112.424         187.934         189.936         211.623         211.623         440.378         440.378         551.351
   95         112.767         112.767         186.618         190.170         211.472         211.472         440.358         440.358         551.504
   96         113.059         113.059         185.495         190.368         211.342         211.342         440.339         440.339         551.634
   97         113.300         113.300         184.569         190.530         211.234         211.234         440.324         440.324         551.741
   98         113.489         113.489         183.844         190.656         211.148         211.148         440.312         440.312         551.824
   99         113.624         113.624         183.324         190.746         211.087         211.087         440.303         440.303         551.883
  100         113.706         113.706         183.011         190.800         211.049         211.049         440.298         440.298         551.919
  101         113.733         113.733         182.906         190.818         211.037         211.037         440.296         440.296         551.931
  102         113.728         113.761         182.913         190.796         211.063         211.149         440.262         440.299         551.932
  103         113.715         113.845         182.934         190.731         211.142         211.486         440.160         440.308         551.937
  104         113.693         113.986         182.969         190.625         211.272         212.043         439.989         440.323         551.944
  105         113.663         114.182         183.018         190.480         211.453         212.816         439.750         440.343         551.955
  106         113.623         114.433         183.082         190.300         211.685         213.798         439.443         440.369         551.969
  107         113.576         114.739         183.159         190.089         211.964         214.983         439.067         440.401         551.985
  108         113.520         115.098         183.252         189.848         212.290         216.361         438.623         440.438         552.005
  109         113.455         115.509         183.359         189.580         212.661         217.927         438.111         440.481         552.027
  110         113.382         115.973         183.481         189.288         213.075         219.672         437.530         440.528         552.052
  111         113.302         116.486         183.618         188.972         213.529         221.588         436.880         440.580         552.080
  112         113.213         117.048         183.770         188.634         214.020         223.666         436.163         440.637         552.111
  113         113.118         117.658         183.936         188.273         214.547         225.900         435.376         440.698         552.145
  114         113.014         118.314         184.117         187.891         215.105         228.281         434.522         440.764         552.181
  115         112.904         119.014         184.313         187.488         215.693         230.801         433.598         440.833         552.220
  116         112.787         119.756         184.523         187.063         216.308         233.453         432.606         440.905         552.261
  117         112.664         120.540         184.746         186.616         216.945         236.227         431.545         440.981         552.304
  118         112.535         121.362         184.982         186.148         217.604         239.116         430.416         441.059         552.350
  119         112.400         122.222         185.230         185.657         218.280         242.112         429.218         441.140         552.398
  120         112.260         123.117         185.145         185.490         218.970         245.207         427.952         441.223         552.447
  121         112.116         124.046         184.610         185.760         219.672         248.393         426.616         441.308         552.499
  122         111.967         125.006         184.053         186.039         220.382         251.663         425.213         441.394         552.552
  123         111.814         125.996         183.473         186.327         221.098         255.009         423.740         441.482         552.607
  124         111.658         127.013         182.871         186.622         221.817         258.423         422.199         441.570         552.662
  125         111.500         128.056         182.247         186.923         222.536         261.898         420.590         441.658         552.719
  126         111.340         129.123         181.599         187.229         223.252         265.428         418.912         441.747         552.777
  127         111.178         130.212         180.929         187.538         223.963         269.006         417.166         441.835         552.835
  128         111.015         131.321         180.237         187.848         224.666         272.624         415.352         441.922         552.894
  129         110.853         132.448         179.522         188.159         225.358         276.278         413.470         442.009         552.952
  130         110.691         133.592         178.784         188.469         226.037         279.960         411.520         442.094         553.011
  131         110.530         134.750         178.025         188.777         226.701         283.666         409.503         442.177         553.069
  132         110.371         135.921         177.243         189.080         227.347         287.388         407.418         442.258         553.127
  133         110.215         137.103         176.440         189.378         227.974         291.124         405.266         442.337         553.183
