# Phonon frequencies in cm-1
    1           0.000           0.000           0.000         283.772         283.772         677.340
    2           4.154           4.175          10.363         283.828         283.924         677.319
    3           8.309           8.349          20.722         283.997         284.378         677.256
    4          12.462          12.520          31.072         284.277         285.133         677.150
    5          16.615          16.689          41.409         284.669         286.185         677.003
    6          20.766          20.853          51.730         285.170         287.531         676.812
    7          24.916          25.011          62.029         285.780         289.164         676.580
    8          29.064          29.163          72.302         286.495         291.078         676.304
    9          33.210          33.308          82.546         287.316         293.266         675.986
   10          37.354          37.443          92.756         288.238         295.718         675.624
   11          41.494          41.569         102.928         289.259         298.427         675.219
   12          45.632          45.683         113.058         290.376         301.382         674.770
   13          49.766          49.786         123.142         291.587         304.573         674.277
   14          53.874          53.897         133.175         292.887         307.990         673.739
   15          57.948          58.024         143.154         294.273         311.621         673.157
   16          62.007          62.146         153.074         295.742         315.455         672.529
   17          66.048          66.264         162.932         297.290         319.482         671.856
   18          70.070          70.376         172.724         298.912         323.689         671.137
   19          74.074          74.484         182.446         300.605         328.066         670.371
   20          78.056          78.586         192.094         302.365         332.602         669.558
   21          82.016          82.682         201.664         304.187         337.286         668.699
   22          85.953          86.772         211.154         306.067         342.107         667.791
   23          89.865          90.856         220.558         308.002         347.054         666.835
   24          93.751          94.933         229.874         309.986         352.118         665.831
   25          97.610          99.003         239.098         312.016         357.288         664.777
   26         101.441         103.065         248.227         314.087         362.556         663.674
   27         105.242         107.120         257.258         316.196         367.911         662.522
   28         109.012         111.167         266.187         318.338         373.345         661.318
   29         112.751         115.206         275.011         320.509         378.849         660.065
   30         116.455         119.237         283.729         322.706         384.415         658.760
   31         120.125         123.258         292.335         324.925         390.035         657.404
   32         123.760         127.271         300.829         327.161         395.701         655.996
   33         127.358         131.274         309.208         329.412         401.405         654.537
   34         130.917         135.268         317.468         331.674         407.141         653.025
   35         134.438         139.252         325.609         333.942         412.902         651.462
   36         137.918         143.226         333.627         336.215         418.681         649.845
   37         141.357         147.189         338.489         341.521         424.471         648.177
   38         144.754         151.142         340.761         349.290         430.266         646.455
   39         148.108         155.084         343.027         356.931         436.061         644.682
   40         151.417         159.015         345.285         364.443         441.849         642.855
   41         154.682         162.935         347.533         371.826         447.624         640.977
   42         157.900         166.843         349.768         379.077         453.382         639.046
   43         161.072         170.739         351.986         386.197         459.117         637.063
   44         164.196         174.623         354.187         393.185         464.823         635.029
   45         167.271         178.495         356.367         400.039         470.495         632.943
   46         170.298         182.354         358.525         406.760         476.129         630.807
   47         173.274         186.200         360.659         413.347         481.720         628.620
   48         176.200         190.033         362.766         419.801         487.263         626.384
   49         179.075         193.853         364.846         426.122         492.754         624.099
   50         181.898         197.659         366.895         432.308         498.188         621.765
   51         184.669         201.451         368.914         438.362         503.561         619.384
   52         187.387         205.229         370.900         444.283         508.869         616.957
   53         190.052         208.992         372.852         450.072         514.108         614.484
   54         192.663         212.741         374.769         455.729         519.275         611.967
   55         195.220         216.474         376.649         461.255         524.365         609.406
   56         197.722         220.192         378.492         466.650         529.376         606.804
   57         200.170         223.893         380.297         471.915         534.304         604.162
   58         202.562         227.578         382.063         477.051         539.146         601.481
   59         204.899         231.246         383.789         482.059         543.900         598.762
   60         207.181         234.896         385.474         486.938         548.562         596.008
   61         209.407         238.527         387.119         491.691         553.130         593.221
   62         211.577         242.140         388.721         496.317         557.602         590.402
   63         213.690         245.733         390.282         500.817         561.975         587.553
   64         215.748         249.305         391.800         505.192         566.248         584.678
   65         217.749         252.856         393.275         509.442         570.418         581.777
   66         219.694         256.384         394.708         513.569         574.484         578.855
   67         221.582         259.889         396.097         517.572         575.912         578.444
   68         223.414         263.368         397.442         521.453         572.954         582.297
   69         225.190         266.821         398.745         525.212         569.981         586.042
   70         226.909         270.246         400.004         528.850         566.999         589.677
   71         228.572         273.641         401.219         532.366         564.009         593.201
   72         230.178         277.004         402.391         535.763         561.016         596.613
   73         231.728         280.333         403.520         539.039         558.024         599.913
   74         233.222         283.626         404.606         542.196         555.037         603.100
   75         234.660         286.880         405.649         545.235         552.059         606.173
   76         236.042         290.091         406.649         548.155         549.095         609.131
   77         237.369         293.258         407.607         546.150         550.956         611.975
   78         238.639         296.375         408.522         543.229         553.641         614.703
   79         239.855         299.440         409.395         540.338         556.208         617.316
   80         241.014         302.447         410.227         537.483         558.658         619.813
   81         242.119         305.392         411.017         534.670         560.992         622.194
   82         243.168         308.270         411.766         531.907         563.210         624.458
   83         244.163         311.076         412.474         529.200         565.312         626.606
   84         245.102         313.802         413.142         526.557         567.298         628.638
   85         245.987         316.442         413.770         523.987         569.170         630.554
   86         246.818         318.988         414.357         521.498         570.927         632.353
   87         247.594         321.434         414.906         519.099         572.569         634.035
   88         248.316         323.771         415.414         516.801         574.096         635.601
   89         248.983         325.990         415.884         514.612         575.510         637.051
   90         249.597         328.081         416.315         512.544         576.809         638.384
   91         250.157         330.035         416.708         510.606         577.995         639.601
   92         250.664         331.843         417.063         508.811         579.068         640.702
   93         251.117         333.495         417.379         507.167         580.027         641.686
   94         251.516         334.981         417.658         505.687         580.873         642.555
   95         251.862         336.291         417.899         504.380         581.606         643.308
   96         252.154         337.417         418.103         503.256         582.226         643.944
   97         252.393         338.350         418.270         502.323         582.733         644.465
   98         252.579         339.084         418.399         501.590         583.127         644.870
   99         252.712         339.612         418.491         501.061         583.409         645.160
  100         252.792         339.931         418.547         500.742         583.577         645.333
  101         252.819         340.038         418.565         500.635         583.634         645.391
  102         252.979         340.065         418.644         500.608         583.604         645.363
  103         253.460         340.149         418.882         500.529         583.513         645.279
  104         254.259         340.288         419.276         500.396         583.363         645.139
  105         255.372         340.482         419.826         500.210         583.152         644.942
  106         256.791         340.731         420.531         499.971         582.882         644.691
  107         258.510         341.035         421.387         499.680         582.551         644.383
  108         260.519         341.395         422.393         499.335         582.162         644.021
  109         262.808         341.808         423.544         498.938         581.713         643.604
  110         265.366         342.276         424.837         498.488         581.205         643.133
  111         268.180         342.798         426.269         497.985         580.638         642.608
  112         271.237         343.373         427.834         497.430         580.014         642.030
  113         274.523         344.001         429.528         496.823         579.332         641.400
  114         278.024         344.682         431.345         496.164         578.592         640.718
  115         281.726         345.416         433.281         495.453         577.797         639.985
  116         285.614         346.201         435.328         494.690         576.945         639.203
  117         289.674         347.037         437.482         493.875         576.038         638.371
  118         293.890         347.924         439.736         493.010         575.076         637.491
  119         298.249         348.861         442.083         492.093         574.060         636.565
  120         302.737         349.848         444.517         491.126         572.992         635.592
  121         307.339         350.884         447.031         490.108         571.871         634.575
  122         312.043         351.968         449.618         489.040         570.700         633.515
  123         316.834         353.101         452.271         487.922         569.478         632.414
  124         321.700         354.281         454.982         486.754         568.208         631.272
  125         326.629         355.509         457.745         485.537         566.890         630.092
  126         331.609         356.783         460.552         484.271         565.525         628.876
  127         336.627         358.103         463.396         482.956         564.116         627.624
  128         341.674         359.469         466.268         481.593         562.664         626.340
  129         346.737         360.880         469.162         480.182         561.170         625.026
  130         351.806         362.335         472.070         478.723         559.637         623.683
  131         356.872         363.835         474.984         477.217         558.065         622.315
  132         361.923         365.379         475.664         477.896         556.459         620.925
  133         366.950         366.966         474.065         480.799         554.820         619.514
  134         368.597         371.944         472.420         483.684         553.151         618.087
  135         370.270         376.894         470.729         486.544         551.454         616.648
  136         371.986         381.791         468.994         489.370         549.734         615.199
  137         373.744         386.626         467.213         492.153         547.995         613.745
  138         375.544         391.388         465.388         494.885         546.239         612.291
  139         377.385         396.068         463.520         497.556         544.474         610.842
  140         379.268         400.656         461.608         500.159         542.703         609.402
  141         381.193         405.140         459.653         502.682         540.934         607.979
  142         383.158         409.509         457.657         505.115         539.173         606.579
  143         385.165         413.752         455.618         507.450         537.430         605.208
  144         387.212         417.854         453.538         509.673         535.713         603.875
  145         389.299         421.802         451.417         511.775         534.033         602.587
  146         391.428         425.580         449.255         513.744         532.403         601.352
  147         393.596         429.171         447.054         515.567         530.837         600.182
  148         395.805         432.556         444.814         517.234         529.352         599.083
  149         398.053         435.715         442.535         518.731         527.966         598.066
  150         400.342         438.625         440.218         520.048         526.698         597.139
  151         402.670         437.863         441.263         521.175         525.569         596.311
  152         405.038         435.471         443.605         522.100         524.604         595.589
  153         407.444         433.043         445.629         522.812         523.828         594.978
  154         409.890         430.579         447.311         523.157         523.409         594.481
  155         412.375         428.079         448.635         522.855         523.641         594.101
  156         414.897         425.546         449.588         522.728         523.712         593.834
  157         417.454         422.982         450.166         522.832         523.574         593.677
  158         419.918         420.517         450.370         523.143         523.251         593.623
  159         417.298         423.139         450.155         522.571         523.832         593.677
  160         414.647         425.798         449.603         521.813         524.608         593.811
  161         411.964         428.493         448.738         520.881         525.555         594.012
  162         409.250         431.224         447.585         519.785         526.647         594.267
  163         406.505         433.991         446.170         518.538         527.857         594.564
  164         403.731         436.792         444.519         517.152         529.157         594.888
  165         400.927         439.628         442.658         515.637         530.524         595.228
  166         398.094         440.608         442.498         514.007         531.934         595.572
  167         395.233         438.391         445.400         512.269         533.367         595.908
  168         392.344         436.024         448.335         510.435         534.803         596.225
  169         389.427         433.523         451.301         508.513         536.228         596.514
  170         386.484         430.902         454.297         506.510         537.627         596.767
  171         383.515         428.173         457.323         504.434         538.989         596.974
  172         380.519         425.346         460.378         502.291         540.302         597.129
  173         377.498         422.430         463.461         500.087         541.559         597.225
  174         374.453         419.432         466.570         497.827         542.752         597.256
  175         371.383         416.359         469.704         495.515         543.874         597.216
  176         368.289         413.217         472.862         493.156         544.919         597.101
  177         365.172         410.010         476.044         490.754         545.883         596.906
  178         362.031         406.744         479.247         488.311         546.762         596.627
  179         358.869         403.422         482.470         485.831         547.551         596.260
  180         355.684         400.047         483.317         485.712         548.248         595.802
  181         352.477         396.623         480.769         488.972         548.849         595.248
  182         349.249         393.151         478.192         492.247         549.353         594.598
  183         346.001         389.634         475.586         495.537         549.757         593.847
  184         342.732         386.075         472.953         498.839         550.060         592.993
  185         339.443         382.475         470.295         502.153         550.259         592.034
  186         336.134         378.836         467.613         505.476         550.353         590.967
  187         332.807         375.160         464.909         508.806         550.341         589.790
  188         329.460         371.447         462.183         512.143         550.222         588.502
  189         326.095         367.700         459.437         515.483         549.995         587.100
  190         322.712         363.918         456.672         518.827         549.658         585.583
  191         319.311         360.104         453.888         522.170         549.212         583.950
  192         315.892         356.259         451.086         525.513         548.656         582.197
  193         312.457         352.383         448.267         528.852         547.988         580.324
  194         309.004         348.477         445.432         532.187         547.208         578.330
  195         305.535         344.542         442.582         535.514         546.317         576.213
