# Phonon frequencies in cm-1
    1         475.768         475.768         550.701         550.701         906.664        1118.994
    2         475.338         475.338         551.084         551.084         906.534        1118.990
    3         474.072         474.072         552.208         552.208         906.145        1118.979
    4         472.041         472.041         554.002         554.002         905.498        1118.959
    5         469.341         469.341         556.370         556.370         904.592        1118.931
    6         466.076         466.076         559.209         559.209         903.430        1118.894
    7         462.344         462.344         562.421         562.421         902.013        1118.846
    8         458.230         458.230         565.922         565.922         900.342        1118.786
    9         453.804         453.804         569.642         569.642         898.420        1118.714
   10         449.122         449.122         573.526         573.526         896.248        1118.627
   11         444.229         444.229         577.528         577.528         893.829        1118.524
   12         439.160         439.160         581.615         581.615         891.166        1118.404
   13         433.945         433.945         585.759         585.759         888.261        1118.264
   14         428.605         428.605         589.938         589.938         885.117        1118.104
   15         423.159         423.159         594.135         594.135         881.737        1117.920
   16         417.622         417.622         598.335         598.335         878.124        1117.713
   17         412.007         412.007         602.527         602.527         874.281        1117.479
   18         406.325         406.325         606.702         606.702         870.211        1117.218
   19         400.583         400.583         610.852         610.852         865.917        1116.927
   20         394.791         394.791         614.970         614.970         861.403        1116.606
   21         388.954         388.954         619.052         619.052         856.671        1116.254
   22         383.078         383.078         623.092         623.092         851.724        1115.868
   23         377.170         377.170         627.087         627.087         846.566        1115.448
   24         371.234         371.234         631.033         631.033         841.200        1114.993
   25         365.274         365.274         634.927         634.927         835.627        1114.503
   26         359.295         359.295         638.768         638.768         829.852        1113.976
   27         353.300         353.300         642.553         642.553         823.876        1113.412
   28         347.293         347.293         646.279         646.279         817.704        1112.811
   29         341.277         341.277         649.947         649.947         811.336        1112.172
   30         335.256         335.256         653.553         653.553         804.777        1111.496
   31         329.232         329.232         657.098         657.098         798.029        1110.782
   32         323.209         323.209         660.579         660.579         791.094        1110.031
   33         317.189         317.189         663.997         663.997         783.974        1109.242
   34         311.176         311.176         667.351         667.351         776.673        1108.417
   35         305.171         305.171         670.639         670.639         769.192        1107.556
   36         299.177         299.177         673.862         673.862         761.535        1106.659
   37         293.198         293.198         677.019         677.019         753.703        1105.727
   38         287.234         287.234         680.109         680.109         745.699        1104.761
   39         281.290         281.290         683.134         683.134         737.525        1103.762
   40         275.366         275.366         686.092         686.092         729.183        1102.731
   41         269.466         269.466         688.984         688.984         720.677        1101.669
   42         263.590         263.590         691.809         691.809         712.007        1100.577
   43         257.743         257.743         694.568         694.568         703.176        1099.456
   44         251.925         251.925         694.187         697.261         697.261        1098.309
   45         246.138         246.138         685.042         699.888         699.888        1097.135
   46         240.386         240.386         675.743         702.450         702.450        1095.937
   47         234.668         234.668         666.293         704.946         704.946        1094.716
   48         228.988         228.988         656.693         707.378         707.378        1093.474
   49         223.348         223.348         646.946         709.745         709.745        1092.212
   50         217.748         217.748         637.054         712.048         712.048        1090.933
   51         212.190         212.190         627.019         714.288         714.288        1089.636
   52         206.677         206.677         616.844         716.465         716.465        1088.325
   53         201.210         201.210         606.532         718.580         718.580        1087.001
   54         195.789         195.789         596.084         720.634         720.634        1085.666
   55         190.418         190.418         585.502         722.626         722.626        1084.322
   56         185.096         185.096         574.790         724.559         724.559        1082.970
   57         179.825         179.825         563.949         726.432         726.432        1081.613
   58         174.607         174.607         552.982         728.246         728.246        1080.252
   59         169.442         169.442         541.892         730.002         730.002        1078.889
   60         164.331         164.331         530.680         731.701         731.701        1077.525
   61         159.276         159.276         519.350         733.344         733.344        1076.164
   62         154.278         154.278         507.904         734.932         734.932        1074.807
   63         149.336         149.336         496.344         736.464         736.464        1073.455
   64         144.451         144.451         484.673         737.943         737.943        1072.110
   65         139.626         139.626         472.893         739.369         739.369        1070.775
   66         134.858         134.858         461.007         740.742         740.742        1069.451
   67         130.150         130.150         449.018         742.065         742.065        1068.141
   68         125.501         125.501         436.928         743.337         743.337        1066.845
   69         120.911         120.911         424.741         744.560         744.560        1065.566
   70         116.381         116.381         412.457         745.734         745.734        1064.305
   71         111.910         111.910         400.082         746.860         746.860        1063.065
   72         107.498         107.498         387.616         747.940         747.940        1061.846
   73         103.146         103.146         375.063         748.973         748.973        1060.651
   74          98.851          98.851         362.426         749.962         749.962        1059.482
   75          94.614          94.614         349.707         750.906         750.906        1058.340
   76          90.435          90.435         336.909         751.807         751.807        1057.226
   77          86.312          86.312         324.036         752.665         752.665        1056.142
   78          82.244          82.244         311.089         753.481         753.481        1055.091
   79          78.231          78.231         298.073         754.256         754.256        1054.072
   80          74.270          74.270         284.989         754.991         754.991        1053.088
   81          70.362          70.362         271.841         755.686         755.686        1052.140
   82          66.504          66.504         258.631         756.343         756.343        1051.229
   83          62.695          62.695         245.363         756.961         756.961        1050.357
   84          58.933          58.933         232.039         757.542         757.542        1049.525
   85          55.216          55.216         218.663         758.086         758.086        1048.734
   86          51.542          51.542         205.238         758.594         758.594        1047.985
   87          47.910          47.910         191.766         759.067         759.067        1047.280
   88          44.317          44.317         178.250         759.504         759.504        1046.618
   89          40.761          40.761         164.695         759.907         759.907        1046.002
   90          37.239          37.239         151.102         760.275         760.275        1045.432
   91          33.749          33.749         137.474         760.610         760.610        1044.908
   92          30.288          30.288         123.816         760.912         760.912        1044.432
   93          26.854          26.854         110.129         761.181         761.181        1044.005
   94          23.444          23.444          96.418         761.418         761.418        1043.626
   95          20.055          20.055          82.685         761.622         761.622        1043.297
   96          16.685          16.685          68.933         761.795         761.795        1043.017
   97          13.329          13.329          55.165         761.936         761.936        1042.788
   98           9.986           9.986          41.385         762.045         762.045        1042.609
   99           6.652           6.652          27.595         762.123         762.123        1042.482
  100           3.325           3.325          13.799         762.170         762.170        1042.405
  101           0.000           0.000           0.000         762.186         762.186         762.186
  102           3.311           8.360          11.399         762.170         762.241        1042.353
  103           6.622          16.719          22.797         762.124         762.407        1042.274
  104           9.935          25.074          34.192         762.046         762.683        1042.142
  105          13.251          33.424          45.584         761.938         763.069        1041.958
  106          16.570          41.767          56.970         761.798         763.565        1041.721
  107          19.893          50.101          68.352         761.627         764.171        1041.432
  108          23.221          58.424          79.725         761.424         764.885        1041.090
  109          26.554          66.736          91.091         761.190         765.707        1040.696
  110          29.894          75.033         102.447         760.923         766.637        1040.249
  111          33.241          83.315         113.792         760.624         767.674        1039.751
  112          36.596          91.579         125.125         760.292         768.816        1039.200
  113          39.959          99.825         136.445         759.927         770.063        1038.598
  114          43.332         108.049         147.750         759.529         771.413        1037.945
  115          46.714         116.251         159.040         759.096         772.866        1037.239
  116          50.107         124.429         170.312         758.629         774.421        1036.483
  117          53.511         132.581         181.567         758.127         776.075        1035.676
  118          56.927         140.705         192.801         757.589         777.828        1034.818
  119          60.355         148.800         204.014         757.015         779.678        1033.910
  120          63.796         156.865         215.206         756.405         781.624        1032.951
  121          67.250         164.897         226.373         755.757         783.663        1031.943
  122          70.718         172.895         237.515         755.071         785.795        1030.886
  123          74.199         180.857         248.631         754.347         788.018        1029.780
  124          77.696         188.782         259.718         753.583         790.329        1028.625
  125          81.206         196.668         270.776         752.779         792.728        1027.422
  126          84.733         204.514         281.803         751.935         795.212        1026.172
  127          88.274         212.319         292.798         751.049         797.778        1024.874
  128          91.831         220.079         303.758         750.121         800.427        1023.530
  129          95.403         227.795         314.683         749.150         803.154        1022.141
  130          98.991         235.465         325.570         748.136         805.959        1020.706
  131         102.596         243.087         336.418         747.076         808.839        1019.227
  132         106.216         250.659         347.225         745.972         811.793        1017.704
  133         109.852         258.182         357.990         744.822         814.817        1016.138
  134         113.504         265.652         368.709         743.625         817.910        1014.531
  135         117.172         273.069         379.383         742.380         821.070        1012.882
  136         120.855         280.431         390.007         741.087         824.295        1011.194
  137         124.554         287.737         400.582         739.745         827.582        1009.467
  138         128.268         294.987         411.103         738.353         830.929        1007.702
  139         131.997         302.177         421.569         736.910         834.334        1005.901
  140         135.742         309.308         431.978         735.416         837.795        1004.065
  141         139.500         316.379         442.327         733.870         841.309        1002.196
  142         143.272         323.387         452.614         732.271         844.875        1000.295
  143         147.058         330.332         462.836         730.618         848.490         998.364
  144         150.858         337.214         472.990         728.912         852.151         996.405
  145         154.670         344.029         483.073         727.150         855.857         994.420
  146         158.493         350.779         493.083         725.333         859.606         992.412
  147         162.329         357.461         503.015         723.460         863.394         990.382
  148         166.175         364.076         512.866         721.530         867.221         988.334
  149         170.032         370.621         522.633         719.543         871.083         986.270
  150         173.898         377.096         532.312         717.497         874.979         984.193
  151         177.773         383.500         541.899         715.394         878.905         982.107
  152         181.656         389.832         551.388         713.232         882.861         980.015
  153         185.547         396.092         560.776         711.011         886.844         977.922
  154         189.444         402.279         570.056         708.730         890.852         975.832
  155         193.346         408.392         579.225         706.389         894.882         973.750
  156         197.253         414.430         588.275         703.988         898.933         971.681
  157         201.164         420.393         597.200         701.527         903.002         969.630
  158         205.078         426.281         605.994         699.005         907.087         967.604
  159         208.994         432.092         614.648         696.423         911.186         965.611
  160         212.910         437.826         623.156         693.779         915.298         963.656
  161         216.827         443.483         631.507         691.074         919.419         961.750
  162         220.742         449.062         639.692         688.309         923.549         959.900
  163         224.655         454.562         647.702         685.483         927.684         958.116
  164         228.564         459.985         655.525         682.596         931.824         956.409
  165         232.469         465.328         663.149         679.648         935.965         954.791
  166         236.369         470.592         670.561         676.641         940.107         953.275
  167         240.261         475.777         673.573         677.748         944.246         951.873
  168         244.146         480.882         670.446         684.694         948.382         950.600
  169         248.021         485.908         667.259         691.384         949.471         952.512
  170         251.886         490.853         664.014         697.802         948.503         956.634
  171         255.739         495.719         660.711         703.931         947.712         960.747
  172         259.580         500.504         657.351         709.753         947.115         964.848
  173         263.406         505.209         653.934         715.251         946.730         968.936
  174         267.217         509.834         650.461         720.408         946.574         973.010
  175         271.011         514.379         646.933         725.208         946.663         977.066
  176         274.788         518.844         643.352         729.636         947.012         981.104
  177         278.545         523.229         639.717         733.679         947.634         985.122
  178         282.281         527.534         636.032         737.327         948.539         989.118
  179         285.996         531.759         632.295         740.571         949.736         993.090
  180         289.688         535.904         628.510         743.408         951.228         997.036
  181         293.355         539.971         624.677         745.838         953.017        1000.956
  182         296.996         543.958         620.798         747.864         955.098        1004.847
  183         300.610         547.867         616.874         749.495         957.465        1008.708
  184         304.196         551.697         612.908         750.741         960.107        1012.537
  185         307.751         555.449         608.900         751.616         963.010        1016.332
  186         311.276         559.122         604.854         752.139         966.157        1020.093
  187         314.768         562.719         600.770         752.328         969.531        1023.817
  188         318.227         566.238         596.652         752.204         973.110        1027.504
  189         321.650         569.681         592.501         751.788         976.874        1031.150
  190         325.037         573.047         588.320         751.103         980.803        1034.757
  191         328.387         576.338         584.111         750.171         984.874        1038.320
  192         331.697         579.553         579.876         749.012         989.068        1041.841
  193         334.967         575.619         582.693         747.648         993.366        1045.316
  194         338.195         571.342         585.759         746.098         997.747        1048.744
  195         341.381         567.048         588.750         744.381        1002.196        1052.125
