# Phonon frequencies in cm-1
    1           0.000           0.000           0.000         348.378         348.378         348.378         434.443         434.443         434.443
    2           1.372           1.372           3.650         348.352         348.352         348.483         434.424         434.452         434.452
    3           2.744           2.744           7.297         348.273         348.273         348.797         434.368         434.479         434.479
    4           4.117           4.117          10.939         348.142         348.142         349.319         434.274         434.525         434.525
    5           5.490           5.490          14.572         347.958         347.958         350.047         434.141         434.588         434.588
    6           6.865           6.865          18.193         347.722         347.722         350.980         433.971         434.669         434.669
    7           8.241           8.241          21.801         347.434         347.434         352.114         433.762         434.768         434.768
    8           9.618           9.618          25.393         347.094         347.094         353.446         433.513         434.884         434.884
    9          10.998          10.998          28.966         346.703         346.703         354.972         433.225         435.018         435.018
   10          12.379          12.379          32.519         346.261         346.261         356.687         432.897         435.170         435.170
   11          13.762          13.762          36.048         345.767         345.767         358.587         432.528         435.338         435.338
   12          15.148          15.148          39.552         345.224         345.224         360.665         432.118         435.523         435.523
   13          16.536          16.536          43.030         344.630         344.630         362.916         431.665         435.725         435.725
   14          17.927          17.927          46.479         343.988         343.988         365.333         431.168         435.943         435.943
   15          19.321          19.321          49.899         343.296         343.296         367.909         430.628         436.176         436.176
   16          20.717          20.717          53.288         342.556         342.556         370.639         430.043         436.426         436.426
   17          22.116          22.116          56.645         341.768         341.768         373.513         429.411         436.690         436.690
   18          23.519          23.519          59.969         340.934         340.934         376.526         428.732         436.970         436.970
   19          24.924          24.924          63.259         340.053         340.053         379.668         428.005         437.264         437.264
   20          26.332          26.332          66.515         339.126         339.126         382.933         427.229         437.573         437.573
   21          27.743          27.743          69.735         338.154         338.154         386.313         426.402         437.895         437.895
   22          29.157          29.157          72.921         337.138         337.138         389.799         425.523         438.231         438.231
   23          30.574          30.574          76.071         336.079         336.079         393.383         424.592         438.580         438.580
   24          31.993          31.993          79.185         334.977         334.977         397.059         423.606         438.941         438.941
   25          33.415          33.415          82.263         333.834         333.834         400.817         422.566         439.315         439.315
   26          34.839          34.839          85.304         332.650         332.650         404.650         421.469         439.700         439.700
   27          36.266          36.266          88.310         331.426         331.426         408.550         420.314         440.096         440.096
   28          37.694          37.694          91.280         330.163         330.163         412.509         419.101         440.504         440.504
   29          39.123          39.123          94.213         328.862         328.862         416.521         417.828         440.922         440.922
   30          40.554          40.554          97.111         327.525         327.525         416.494         420.577         441.350         441.350
   31          41.986          41.986          99.973         326.151         326.151         415.098         424.671         441.787         441.787
   32          43.419          43.419         102.799         324.742         324.742         413.639         428.796         442.234         442.234
   33          44.852          44.852         105.590         323.300         323.300         412.116         432.944         442.689         442.689
   34          46.285          46.285         108.346         321.825         321.825         410.529         437.110         443.152         443.152
   35          47.717          47.717         111.066         320.319         320.319         408.875         441.287         443.623         443.623
   36          49.149          49.149         113.752         318.782         318.782         407.156         444.101         444.101         445.469
   37          50.579          50.579         116.402         317.216         317.216         405.369         444.586         444.586         449.651
   38          52.007          52.007         119.018         315.622         315.622         403.514         445.077         445.077         453.826
   39          53.433          53.433         121.599         314.001         314.001         401.591         445.574         445.574         457.989
   40          54.857          54.857         124.145         312.355         312.355         399.600         446.077         446.077         462.134
   41          56.277          56.277         126.658         310.684         310.684         397.539         446.584         446.584         466.259
   42          57.693          57.693         129.136         308.991         308.991         395.410         447.095         447.095         470.356
   43          59.105          59.105         131.579         307.276         307.276         393.211         447.610         447.610         474.422
   44          60.512          60.512         133.988         305.541         305.541         390.943         448.128         448.128         478.453
   45          61.914          61.914         136.364         303.787         303.787         388.605         448.650         448.650         482.445
   46          63.309          63.309         138.704         302.015         302.015         386.199         449.174         449.174         486.394
   47          64.698          64.698         141.011         300.228         300.228         383.725         449.699         449.699         490.296
   48          66.080          66.080         143.283         298.426         298.426         381.182         450.226         450.226         494.148
   49          67.454          67.454         145.521         296.611         296.611         378.573         450.754         450.754         497.948
   50          68.820          68.820         147.725         294.785         294.785         375.898         451.283         451.283         501.691
   51          70.177          70.177         149.894         292.948         292.948         373.157         451.811         451.811         505.375
   52          71.524          71.524         152.028         291.103         291.103         370.352         452.339         452.339         508.999
   53          72.861          72.861         154.127         289.251         289.251         367.485         452.865         452.865         512.558
   54          74.188          74.188         156.192         287.394         287.394         364.557         453.391         453.391         516.052
   55          75.503          75.503         158.221         285.534         285.534         361.570         453.914         453.914         519.479
   56          76.806          76.806         160.215         283.671         283.671         358.526         454.435         454.435         522.836
   57          78.096          78.096         162.173         281.808         281.808         355.427         454.953         454.953         526.121
   58          79.373          79.373         164.096         279.946         279.946         352.275         455.467         455.467         529.335
   59          80.636          80.636         165.982         278.087         278.087         349.073         455.977         455.977         532.474
   60          81.885          81.885         167.832         276.233         276.233         345.823         456.484         456.484         535.538
   61          83.119          83.119         169.645         274.386         274.386         342.530         456.985         456.985         538.527
   62          84.337          84.337         171.422         272.547         272.547         339.196         457.481         457.481         541.438
   63          85.538          85.538         173.161         270.718         270.718         335.824         457.971         457.971         544.272
   64          86.722          86.722         174.862         268.901         268.901         332.419         458.455         458.455         547.028
   65          87.889          87.889         176.526         267.097         267.097         328.984         458.932         458.932         549.705
   66          89.038          89.038         178.151         265.310         265.310         325.524         459.402         459.402         552.303
   67          90.167          90.167         179.737         263.540         263.540         322.043         459.865         459.865         554.821
   68          91.277          91.277         181.284         261.789         261.789         318.546         460.320         460.320         557.260
   69          92.366          92.366         182.792         260.060         260.060         315.037         460.766         460.766         559.620
   70          93.435          93.435         184.260         258.355         258.355         311.524         461.203         461.203         561.899
   71          94.482          94.482         185.687         256.674         256.674         308.010         461.631         461.631         564.100
   72          95.506          95.506         187.074         255.021         255.021         304.502         462.049         462.049         566.221
   73          96.507          96.507         188.419         253.397         253.397         301.005         462.458         462.458         568.262
   74          97.484          97.484         189.723         251.805         251.805         297.528         462.856         462.856         570.226
   75          98.437          98.437         190.985         250.246         250.246         294.075         463.242         463.242         572.110
   76          99.364          99.364         192.203         248.722         248.722         290.654         463.618         463.618         573.917
   77         100.265         100.265         193.379         247.236         247.236         287.273         463.982         463.982         575.647
   78         101.138         101.138         194.512         245.789         245.789         283.938         464.334         464.334         577.299
   79         101.984         101.984         195.600         244.384         244.384         280.658         464.674         464.674         578.875
   80         102.802         102.802         196.644         243.022         243.022         277.440         465.002         465.002         580.375
   81         103.589         103.589         197.642         241.706         241.706         274.293         465.316         465.316         581.800
   82         104.346         104.346         198.596         240.438         240.438         271.224         465.617         465.617         583.150
   83         105.072         105.072         199.504         239.220         239.220         268.243         465.904         465.904         584.426
   84         105.766         105.766         200.365         238.054         238.054         265.358         466.178         466.178         585.629
   85         106.426         106.426         201.180         236.941         236.941         262.577         466.437         466.437         586.759
   86         107.052         107.052         201.947         235.884         235.884         259.910         466.683         466.683         587.817
   87         107.644         107.644         202.667         234.885         234.885         257.364         466.913         466.913         588.803
   88         108.199         108.199         203.340         233.946         233.946         254.949         467.129         467.129         589.719
   89         108.717         108.717         203.964         233.068         233.068         252.672         467.329         467.329         590.564
   90         109.198         109.198         204.539         232.253         232.253         250.543         467.514         467.514         591.339
   91         109.641         109.641         205.066         231.503         231.503         248.568         467.684         467.684         592.045
   92         110.044         110.044         205.543         230.819         230.819         246.756         467.838         467.838         592.682
   93         110.407         110.407         205.971         230.203         230.203         245.114         467.977         467.977         593.250
   94         110.729         110.729         206.349         229.656         229.656         243.647         468.099         468.099         593.751
   95         111.009         111.009         206.677         229.180         229.180         242.364         468.205         468.205         594.184
   96         111.247         111.247         206.955         228.775         228.775         241.268         468.296         468.296         594.550
   97         111.443         111.443         207.183         228.442         228.442         240.364         468.369         468.369         594.849
   98         111.596         111.596         207.360         228.182         228.182         239.657         468.427         468.427         595.082
   99         111.705         111.705         207.487         227.996         227.996         239.150         468.468         468.468         595.248
  100         111.771         111.771         207.563         227.885         227.885         238.845         468.493         468.493         595.347
  101         111.793         111.793         207.588         227.847         227.847         238.743         468.501         468.501         595.380
  102         111.804         111.827         207.542         227.810         227.997         238.776         468.473         468.507         595.374
  103         111.839         111.928         207.407         227.701         228.441         238.874         468.389         468.526         595.355
  104         111.895         112.096         207.191         227.523         229.172         239.032         468.250         468.558         595.323
  105         111.974         112.332         206.903         227.282         230.174         239.244         468.054         468.602         595.279
  106         112.076         112.633         206.558         226.986         231.433         239.504         467.801         468.658         595.222
  107         112.198         112.999         206.163         226.643         232.932         239.803         467.493         468.726         595.153
  108         112.342         113.428         205.730         226.259         234.657         240.136         467.127         468.807         595.072
  109         112.506         113.921         205.265         225.842         236.595         240.495         466.704         468.899         594.979
  110         112.689         114.475         204.772         225.396         238.732         240.875         466.224         469.002         594.875
  111         112.891         115.088         204.254         224.928         241.058         241.270         465.685         469.117         594.759
  112         113.111         115.759         203.715         224.443         241.676         243.561         465.088         469.242         594.633
  113         113.347         116.487         203.154         223.943         242.091         246.232         464.432         469.377         594.497
  114         113.599         117.268         202.573         223.432         242.510         249.061         463.716         469.522         594.351
  115         113.866         118.102         201.970         222.913         242.932         252.038         462.940         469.676         594.195
  116         114.146         118.985         201.347         222.389         243.353         255.153         462.103         469.840         594.031
  117         114.438         119.916         200.701         221.862         243.773         258.397         461.205         470.011         593.858
  118         114.741         120.893         200.034         221.334         244.190         261.761         460.244         470.190         593.678
  119         115.054         121.913         199.343         220.807         244.602         265.234         459.220         470.376         593.491
  120         115.375         122.974         198.630         220.281         245.008         268.809         458.133         470.569         593.298
  121         115.703         124.074         197.893         219.760         245.407         272.475         456.981         470.767         593.099
  122         116.036         125.211         197.131         219.244         245.798         276.223         455.764         470.970         592.895
  123         116.373         126.381         196.346         218.734         246.181         280.045         454.480         471.177         592.687
  124         116.714         127.584         195.535         218.232         246.554         283.932         453.130         471.388         592.476
  125         117.055         128.816         194.701         217.738         246.918         287.876         451.712         471.602         592.262
  126         117.397         130.075         193.841         217.255         247.271         291.868         450.226         471.817         592.046
  127         117.738         131.360         192.956         216.782         247.613         295.901         448.671         472.033         591.830
  128         118.075         132.668         192.047         216.321         247.944         299.967         447.046         472.250         591.613
  129         118.409         133.997         191.113         215.873         248.263         304.058         445.350         472.465         591.397
  130         118.738         135.346         190.155         215.439         248.570         308.168         443.583         472.679         591.183
  131         119.060         136.711         189.172         215.019         248.864         312.290         441.744         472.891         590.972
  132         119.375         138.092         188.166         214.614         249.146         316.417         439.833         473.099         590.764
  133         119.681         139.486         187.135         214.225         249.415         320.544         437.848         473.303         590.560
