# Phonon frequencies in cm-1
    1         458.892         458.892         526.218         526.218         899.458        1122.723
    2         458.434         458.434         526.629         526.629         899.335        1122.709
    3         457.093         457.093         527.829         527.829         898.964        1122.668
    4         454.955         454.955         529.732         529.732         898.347        1122.600
    5         452.136         452.136         532.223         532.223         897.484        1122.503
    6         448.755         448.755         535.182         535.182         896.375        1122.378
    7         444.920         444.920         538.502         538.502         895.023        1122.225
    8         440.721         440.721         542.093         542.093         893.427        1122.041
    9         436.229         436.229         545.884         545.884         891.589        1121.828
   10         431.502         431.502         549.820         549.820         889.512        1121.584
   11         426.581         426.581         553.858         553.858         887.195        1121.308
   12         421.502         421.502         557.965         557.965         884.643        1120.999
   13         416.290         416.290         562.115         562.115         881.855        1120.656
   14         410.967         410.967         566.288         566.288         878.835        1120.279
   15         405.549         405.549         570.469         570.469         875.585        1119.867
   16         400.050         400.050         574.644         574.644         872.107        1119.418
   17         394.482         394.482         578.803         578.803         868.402        1118.932
   18         388.853         388.853         582.939         582.939         864.475        1118.408
   19         383.173         383.173         587.043         587.043         860.326        1117.846
   20         377.447         377.447         591.112         591.112         855.959        1117.244
   21         371.683         371.683         595.139         595.139         851.376        1116.602
   22         365.886         365.886         599.120         599.120         846.580        1115.919
   23         360.060         360.060         603.053         603.053         841.572        1115.195
   24         354.210         354.210         606.935         606.935         836.355        1114.430
   25         348.341         348.341         610.763         610.763         830.933        1113.624
   26         342.455         342.455         614.534         614.534         825.307        1112.776
   27         336.558         336.558         618.248         618.248         819.479        1111.886
   28         330.651         330.651         621.902         621.902         813.453        1110.955
   29         324.739         324.739         625.495         625.495         807.231        1109.982
   30         318.824         318.824         629.026         629.026         800.814        1108.968
   31         312.909         312.909         632.494         632.494         794.206        1107.913
   32         306.998         306.998         635.898         635.898         787.409        1106.818
   33         301.093         301.093         639.238         639.238         780.425        1105.684
   34         295.196         295.196         642.513         642.513         773.257        1104.510
   35         289.311         289.311         645.722         645.722         765.906        1103.299
   36         283.440         283.440         648.865         648.865         758.375        1102.050
   37         277.585         277.585         651.941         651.941         750.667        1100.765
   38         271.749         271.749         654.952         654.952         742.784        1099.445
   39         265.934         265.934         657.896         657.896         734.727        1098.091
   40         260.142         260.142         660.774         660.774         726.500        1096.704
   41         254.376         254.376         663.585         663.585         718.104        1095.286
   42         248.638         248.638         666.330         666.330         709.542        1093.838
   43         242.930         242.930         669.009         669.009         700.816        1092.361
   44         237.254         237.254         671.622         671.622         691.929        1090.857
   45         231.613         231.613         674.169         674.169         682.882        1089.328
   46         226.008         226.008         673.678         676.651         676.651        1087.775
   47         220.441         220.441         664.319         679.068         679.068        1086.200
   48         214.915         214.915         654.808         681.421         681.421        1084.605
   49         209.430         209.430         645.147         683.711         683.711        1082.991
   50         203.989         203.989         635.338         685.936         685.936        1081.361
   51         198.594         198.594         625.383         688.099         688.099        1079.716
   52         193.247         193.247         615.285         690.200         690.200        1078.058
   53         187.948         187.948         605.047         692.240         692.240        1076.389
   54         182.700         182.700         594.670         694.219         694.219        1074.712
   55         177.504         177.504         584.157         696.137         696.137        1073.027
   56         172.361         172.361         573.511         697.996         697.996        1071.338
   57         167.273         167.273         562.734         699.797         699.797        1069.646
   58         162.241         162.241         551.828         701.540         701.540        1067.953
   59         157.266         157.266         540.796         703.226         703.226        1066.262
   60         152.350         152.350         529.640         704.856         704.856        1064.574
   61         147.493         147.493         518.364         706.430         706.430        1062.892
   62         142.697         142.697         506.969         707.950         707.950        1061.217
   63         137.962         137.962         495.459         709.417         709.417        1059.552
   64         133.289         133.289         483.835         710.830         710.830        1057.899
   65         128.678         128.678         472.100         712.193         712.193        1056.260
   66         124.131         124.131         460.258         713.504         713.504        1054.637
   67         119.648         119.648         448.310         714.765         714.765        1053.033
   68         115.228         115.228         436.260         715.977         715.977        1051.448
   69         110.873         110.873         424.110         717.142         717.142        1049.886
   70         106.582         106.582         411.863         718.258         718.258        1048.348
   71         102.356         102.356         399.522         719.329         719.329        1046.837
   72          98.194          98.194         387.089         720.354         720.354        1045.353
   73          94.096          94.096         374.567         721.335         721.335        1043.900
   74          90.061          90.061         361.960         722.272         722.272        1042.479
   75          86.090          86.090         349.270         723.167         723.167        1041.091
   76          82.181          82.181         336.499         724.020         724.020        1039.740
   77          78.334          78.334         323.652         724.831         724.831        1038.426
   78          74.548          74.548         310.730         725.603         725.603        1037.151
   79          70.821          70.821         297.737         726.335         726.335        1035.917
   80          67.153          67.153         284.676         727.028         727.028        1034.726
   81          63.542          63.542         271.549         727.684         727.684        1033.579
   82          59.986          59.986         258.360         728.303         728.303        1032.478
   83          56.485          56.485         245.111         728.885         728.885        1031.424
   84          53.035          53.035         231.806         729.431         729.431        1030.418
   85          49.636          49.636         218.448         729.943         729.943        1029.462
   86          46.285          46.285         205.040         730.421         730.421        1028.558
   87          42.980          42.980         191.584         730.864         730.864        1027.706
   88          39.719          39.719         178.084         731.275         731.275        1026.908
   89          36.498          36.498         164.544         731.652         731.652        1026.164
   90          33.317          33.317         150.965         731.998         731.998        1025.477
   91          30.170          30.170         137.352         732.312         732.312        1024.845
   92          27.057          27.057         123.707         732.595         732.595        1024.272
   93          23.974          23.974         110.034         732.847         732.847        1023.756
   94          20.917          20.917          96.335         733.068         733.068        1023.300
   95          17.884          17.884          82.614         733.260         733.260        1022.903
   96          14.872          14.872          68.874         733.421         733.421        1022.566
   97          11.877          11.877          55.118         733.553         733.553        1022.290
   98           8.895           8.895          41.350         733.655         733.655        1022.075
   99           5.925           5.925          27.572         733.728         733.728        1021.921
  100           2.961           2.961          13.788         733.772         733.772        1021.828
  101           0.000           0.000           0.000         733.786         733.786         733.786
  102           2.948           8.505          11.176         733.772         733.847        1021.774
  103           5.897          17.008          22.352         733.729         734.029        1021.704
  104           8.847          25.507          33.524         733.656         734.331        1021.588
  105          11.799          34.001          44.694         733.555         734.755        1021.425
  106          14.754          42.486          55.858         733.424         735.298        1021.215
  107          17.713          50.962          67.017         733.264         735.961        1020.959
  108          20.676          59.427          78.169         733.074         736.743        1020.656
  109          23.644          67.878          89.313         732.854         737.644        1020.308
  110          26.617          76.313         100.447         732.604         738.661        1019.912
  111          29.597          84.732         111.571         732.323         739.795        1019.471
  112          32.584          93.131         122.683         732.011         741.044        1018.983
  113          35.578         101.509         133.782         731.667         742.408        1018.450
  114          38.580         109.864         144.866         731.291         743.883        1017.871
  115          41.590         118.194         155.935         730.883         745.471        1017.246
  116          44.610         126.498         166.988         730.441         747.168        1016.575
  117          47.640         134.774         178.022         729.966         748.973        1015.860
  118          50.680         143.019         189.037         729.456         750.884        1015.099
  119          53.731         151.233         200.032         728.911         752.901        1014.293
  120          56.792         159.412         211.005         728.330         755.020        1013.442
  121          59.866         167.556         221.954         727.713         757.240        1012.547
  122          62.951         175.663         232.879         727.059         759.558        1011.608
  123          66.048         183.731         243.778         726.366         761.974        1010.626
  124          69.159         191.759         254.649         725.634         764.484        1009.599
  125          72.281         199.744         265.492         724.863         767.087        1008.530
  126          75.418         207.686         276.304         724.051         769.780        1007.418
  127          78.567         215.582         287.085         723.197         772.561        1006.263
  128          81.730         223.431         297.832         722.301         775.428        1005.067
  129          84.907         231.232         308.544         721.362         778.378        1003.829
  130          88.097         238.982         319.220         720.379         781.408        1002.551
  131          91.301         246.681         329.857         719.350         784.517        1001.233
  132          94.519         254.328         340.455         718.275         787.701         999.875
  133          97.751         261.919         351.011         717.154         790.959         998.478
  134         100.997         269.455         361.523         715.984         794.288         997.043
  135         104.256         276.934         371.990         714.765         797.685         995.571
  136         107.529         284.354         382.410         713.497         801.147         994.063
  137         110.816         291.715         392.781         712.178         804.672         992.519
  138         114.115         299.015         403.100         710.806         808.258         990.941
  139         117.428         306.252         413.366         709.383         811.901         989.330
  140         120.754         313.426         423.576         707.905         815.600         987.686
  141         124.091         320.536         433.728         706.373         819.351         986.012
  142         127.441         327.580         443.820         704.786         823.152         984.309
  143         130.803         334.557         453.849         703.142         827.001         982.578
  144         134.176         341.467         463.812         701.441         830.894         980.821
  145         137.560         348.308         473.707         699.682         834.829         979.039
  146         140.954         355.079         483.530         697.864         838.804         977.236
  147         144.357         361.780         493.279         695.986         842.816         975.412
  148         147.771         368.410         502.950         694.048         846.862         973.571
  149         151.192         374.967         512.540         692.049         850.940         971.714
  150         154.622         381.451         522.045         689.987         855.048         969.845
  151         158.059         387.862         531.461         687.864         859.183         967.966
  152         161.503         394.198         540.785         685.677         863.342         966.082
  153         164.953         400.460         550.011         683.426         867.523         964.195
  154         168.408         406.645         559.135         681.111         871.723         962.309
  155         171.867         412.754         568.152         678.731         875.941         960.429
  156         175.330         418.786         577.056         676.286         880.173         958.559
  157         178.796         424.741         585.842         673.774         884.418         956.705
  158         182.264         430.619         594.503         671.197         888.674         954.871
  159         185.733         436.418         603.033         668.554         892.936         953.065
  160         189.202         442.138         611.424         665.843         897.205         951.292
  161         192.670         447.779         619.668         663.066         901.477         949.561
  162         196.137         453.341         627.757         660.222         905.750         947.878
  163         199.600         458.824         635.682         657.311         910.022         946.253
  164         203.060         464.227         643.432         654.332         914.291         944.695
  165         206.516         469.550         650.997         651.286         918.555         943.213
  166         209.965         474.792         648.174         658.365         922.811         941.820
  167         213.408         479.955         644.994         665.525         927.058         940.527
  168         216.843         485.037         641.748         672.463         931.294         939.347
  169         220.268         490.038         638.436         679.165         935.517         938.292
  170         223.684         494.960         635.058         685.616         937.378         939.724
  171         227.088         499.800         631.614         691.802         936.620         943.915
  172         230.480         504.561         628.106         697.707         936.032         948.086
  173         233.858         509.241         624.533         703.315         935.630         952.237
  174         237.222         513.840         620.897         708.611         935.430         956.365
  175         240.569         518.360         617.198         713.579         935.448         960.469
  176         243.900         522.800         613.438         718.204         935.697         964.546
  177         247.212         527.160         609.617         722.474         936.190         968.597
  178         250.504         531.440         605.736         726.378         936.939         972.618
  179         253.776         535.641         601.797         729.907         937.952         976.607
  180         257.025         539.763         597.801         733.055         939.236         980.565
  181         260.252         543.806         593.749         735.819         940.794         984.488
  182         263.453         547.770         589.643         738.201         942.624         988.376
  183         266.629         551.657         585.485         740.203         944.725         992.227
  184         269.777         555.465         581.275         741.834         947.087         996.040
  185         272.897         559.196         577.017         743.105         949.702         999.812
  186         275.988         562.850         572.711         744.029         952.555        1003.544
  187         279.047         566.427         568.361         744.623         955.632        1007.232
  188         282.073         563.968         569.928         744.903         958.915        1010.877
  189         285.066         559.535         573.353         744.890         962.386        1014.477
  190         288.024         555.064         576.703         744.602         966.026        1018.031
  191         290.945         550.558         579.977         744.061         969.816        1021.537
  192         293.828         546.020         583.178         743.287         973.735        1024.994
  193         296.671         541.453         586.304         742.299         977.766        1028.401
  194         299.474         536.859         589.356         741.116         981.891        1031.758
  195         302.235         532.242         592.336         739.758         986.091        1035.062
