#   T(K)    C_v(k_B/fu)        Gamma     alpha_v*10^6(K^-1)   E_th(eV)                       P_th_(GPa)
#                                                                         ----------------------------------------------
#                                                                          {sum G_i.U_iV}  {int G.C_v/V dT}    {G.U/V}
# ---------------------------------------------------------------------------------------------------------------------------------------------------
    10           0.000           0.757           0.000           0.263           5.416           0.000           3.092
    20           0.000           0.790           0.000           0.263           5.416           0.000           3.227
    30           0.001           0.943           0.001           0.263           5.416           0.000           3.854
    40           0.004           1.156           0.007           0.263           5.416           0.000           4.725
    50           0.015           1.344           0.029           0.263           5.416           0.000           5.492
    60           0.035           1.484           0.076           0.263           5.416           0.001           6.065
    70           0.067           1.580           0.155           0.263           5.417           0.002           6.459
    80           0.111           1.641           0.265           0.263           5.419           0.005           6.708
    90           0.166           1.673           0.406           0.263           5.422           0.009           6.844
   100           0.234           1.686           0.575           0.263           5.427           0.014           6.899
   110           0.313           1.684           0.769           0.263           5.433           0.021           6.900
   120           0.402           1.674           0.984           0.264           5.441           0.030           6.866
   130           0.502           1.659           1.218           0.264           5.451           0.041           6.814
   140           0.611           1.641           1.466           0.264           5.463           0.055           6.754
   150           0.728           1.623           1.726           0.265           5.478           0.070           6.693
   160           0.851           1.605           1.995           0.266           5.495           0.089           6.634
   170           0.979           1.587           2.270           0.266           5.515           0.110           6.582
   180           1.110           1.571           2.549           0.267           5.537           0.133           6.536
   190           1.245           1.556           2.830           0.268           5.561           0.159           6.498
   200           1.380           1.542           3.110           0.270           5.589           0.188           6.468
   210           1.517           1.530           3.390           0.271           5.619           0.219           6.445
   220           1.653           1.518           3.666           0.272           5.651           0.252           6.429
   230           1.787           1.508           3.938           0.274           5.686           0.288           6.420
   240           1.921           1.499           4.205           0.275           5.723           0.327           6.418
   250           2.052           1.490           4.466           0.277           5.763           0.368           6.421
   260           2.180           1.482           4.721           0.279           5.805           0.411           6.430
   270           2.305           1.475           4.970           0.281           5.850           0.457           6.444
   280           2.428           1.469           5.211           0.283           5.896           0.505           6.463
   290           2.547           1.463           5.444           0.285           5.945           0.555           6.486
   300           2.662           1.458           5.670           0.287           5.996           0.607           6.513
   310           2.774           1.453           5.888           0.289           6.049           0.661           6.545
   320           2.882           1.449           6.099           0.292           6.104           0.717           6.580
   330           2.986           1.445           6.302           0.294           6.161           0.775           6.618
   340           3.087           1.441           6.498           0.297           6.220           0.834           6.659
   350           3.184           1.437           6.686           0.300           6.280           0.896           6.704
   360           3.277           1.434           6.867           0.303           6.343           0.959           6.751
   370           3.367           1.431           7.041           0.305           6.406           1.023           6.801
   380           3.454           1.428           7.208           0.308           6.472           1.089           6.853
   390           3.537           1.426           7.369           0.311           6.539           1.157           6.908
   400           3.617           1.424           7.523           0.314           6.607           1.226           6.965
   410           3.694           1.421           7.671           0.318           6.677           1.296           7.024
   420           3.768           1.419           7.813           0.321           6.748           1.368           7.085
   430           3.839           1.417           7.949           0.324           6.820           1.441           7.147
   440           3.907           1.416           8.080           0.327           6.894           1.515           7.212
   450           3.972           1.414           8.205           0.331           6.968           1.591           7.278
   460           4.035           1.412           8.326           0.334           7.044           1.667           7.346
   470           4.095           1.411           8.442           0.338           7.121           1.744           7.415
   480           4.153           1.410           8.553           0.341           7.199           1.823           7.486
   490           4.209           1.408           8.659           0.345           7.278           1.902           7.558
   500           4.262           1.407           8.762           0.349           7.358           1.983           7.631
   510           4.313           1.406           8.860           0.352           7.439           2.064           7.706
   520           4.363           1.405           8.954           0.356           7.521           2.146           7.781
   530           4.410           1.404           9.045           0.360           7.603           2.229           7.858
   540           4.456           1.403           9.132           0.364           7.687           2.313           7.936
   550           4.500           1.402           9.216           0.367           7.771           2.398           8.015
   560           4.542           1.401           9.297           0.371           7.856           2.483           8.095
   570           4.583           1.400           9.374           0.375           7.942           2.569           8.176
   580           4.622           1.399           9.449           0.379           8.028           2.656           8.258
   590           4.659           1.399           9.520           0.383           8.115           2.743           8.340
   600           4.695           1.398           9.589           0.387           8.203           2.831           8.424
   610           4.730           1.397           9.656           0.391           8.291           2.920           8.508
   620           4.764           1.397           9.720           0.395           8.380           3.009           8.593
   630           4.796           1.396           9.782           0.400           8.470           3.099           8.679
   640           4.827           1.395           9.841           0.404           8.560           3.189           8.765
   650           4.857           1.395           9.898           0.408           8.650           3.280           8.852
   660           4.886           1.394           9.954           0.412           8.741           3.371           8.940
   670           4.914           1.394          10.007           0.416           8.833           3.463           9.028
   680           4.941           1.393          10.059           0.421           8.925           3.555           9.117
   690           4.967           1.393          10.108           0.425           9.017           3.648           9.206
   700           4.993           1.392          10.156           0.429           9.110           3.741           9.296
   710           5.017           1.392          10.202           0.433           9.204           3.835           9.387
   720           5.040           1.392          10.247           0.438           9.298           3.929           9.478
   730           5.063           1.391          10.290           0.442           9.392           4.024           9.569
   740           5.085           1.391          10.332           0.446           9.487           4.118           9.661
   750           5.106           1.390          10.372           0.451           9.582           4.214           9.754
   760           5.127           1.390          10.411           0.455           9.677           4.309           9.847
   770           5.147           1.390          10.449           0.460           9.773           4.405           9.940
   780           5.166           1.389          10.486           0.464           9.869           4.501          10.034
   790           5.184           1.389          10.521           0.469           9.965           4.598          10.128
   800           5.202           1.389          10.555           0.473          10.062           4.695          10.222
   810           5.220           1.388          10.589           0.478          10.159           4.792          10.317
   820           5.237           1.388          10.621           0.482          10.256           4.889          10.413
   830           5.253           1.388          10.652           0.487          10.354           4.987          10.508
   840           5.269           1.388          10.682           0.491          10.452           5.085          10.604
   850           5.284           1.387          10.711           0.496          10.550           5.183          10.700
   860           5.299           1.387          10.740           0.500          10.648           5.282          10.797
   870           5.314           1.387          10.767           0.505          10.747           5.381          10.894
   880           5.328           1.387          10.794           0.509          10.846           5.480          10.991
   890           5.341           1.386          10.820           0.514          10.945           5.579          11.088
   900           5.355           1.386          10.845           0.519          11.045           5.679          11.186
   910           5.368           1.386          10.870           0.523          11.144           5.778          11.284
   920           5.380           1.386          10.893           0.528          11.244           5.878          11.382
   930           5.392           1.386          10.916           0.532          11.344           5.979          11.481
   940           5.404           1.385          10.939           0.537          11.444           6.079          11.580
   950           5.415           1.385          10.961           0.542          11.545           6.180          11.679
   960           5.427           1.385          10.982           0.546          11.646           6.280          11.778
   970           5.437           1.385          11.002           0.551          11.747           6.381          11.877
   980           5.448           1.385          11.022           0.556          11.848           6.483          11.977
   990           5.458           1.385          11.042           0.561          11.949           6.584          12.077
  1000           5.468           1.384          11.061           0.565          12.050           6.685          12.177
  1010           5.478           1.384          11.079           0.570          12.152           6.787          12.277
  1020           5.487           1.384          11.097           0.575          12.254           6.889          12.378
  1030           5.497           1.384          11.115           0.579          12.356           6.991          12.478
  1040           5.506           1.384          11.132           0.584          12.458           7.093          12.579
  1050           5.514           1.384          11.148           0.589          12.560           7.195          12.680
  1060           5.523           1.384          11.165           0.594          12.662           7.298          12.781
  1070           5.531           1.384          11.180           0.598          12.765           7.400          12.883
  1080           5.539           1.383          11.196           0.603          12.867           7.503          12.984
  1090           5.547           1.383          11.211           0.608          12.970           7.606          13.086
  1100           5.555           1.383          11.225           0.613          13.073           7.709          13.188
  1110           5.562           1.383          11.240           0.618          13.176           7.812          13.290
  1120           5.570           1.383          11.253           0.622          13.280           7.916          13.392
  1130           5.577           1.383          11.267           0.627          13.383           8.019          13.494
  1140           5.584           1.383          11.280           0.632          13.486           8.122          13.597
  1150           5.591           1.383          11.293           0.637          13.590           8.226          13.699
  1160           5.597           1.383          11.306           0.642          13.694           8.330          13.802
  1170           5.604           1.382          11.318           0.646          13.797           8.434          13.905
  1180           5.610           1.382          11.330           0.651          13.901           8.538          14.008
  1190           5.616           1.382          11.342           0.656          14.005           8.642          14.111
  1200           5.622           1.382          11.353           0.661          14.110           8.746          14.214
  1210           5.628           1.382          11.364           0.666          14.214           8.850          14.317
  1220           5.634           1.382          11.375           0.671          14.318           8.955          14.421
  1230           5.640           1.382          11.386           0.675          14.423           9.059          14.525
  1240           5.645           1.382          11.396           0.680          14.527           9.164          14.628
  1250           5.650           1.382          11.407           0.685          14.632           9.268          14.732
  1260           5.656           1.382          11.417           0.690          14.737           9.373          14.836
  1270           5.661           1.382          11.426           0.695          14.841           9.478          14.940
  1280           5.666           1.382          11.436           0.700          14.946           9.583          15.044
  1290           5.671           1.381          11.445           0.705          15.051           9.688          15.148
  1300           5.676           1.381          11.454           0.710          15.156           9.793          15.253
  1310           5.680           1.381          11.463           0.715          15.262           9.898          15.357
  1320           5.685           1.381          11.472           0.719          15.367          10.004          15.461
  1330           5.689           1.381          11.481           0.724          15.472          10.109          15.566
  1340           5.694           1.381          11.489           0.729          15.577          10.215          15.671
  1350           5.698           1.381          11.497           0.734          15.683          10.320          15.776
  1360           5.702           1.381          11.505           0.739          15.789          10.426          15.880
  1370           5.707           1.381          11.513           0.744          15.894          10.531          15.985
  1380           5.711           1.381          11.521           0.749          16.000          10.637          16.090
  1390           5.715           1.381          11.529           0.754          16.106          10.743          16.195
  1400           5.719           1.381          11.536           0.759          16.211          10.849          16.301
  1410           5.722           1.381          11.543           0.764          16.317          10.955          16.406
  1420           5.726           1.381          11.550           0.769          16.423          11.061          16.511
  1430           5.730           1.381          11.557           0.774          16.529          11.167          16.617
  1440           5.733           1.381          11.564           0.778          16.635          11.273          16.722
  1450           5.737           1.380          11.571           0.783          16.742          11.379          16.828
  1460           5.740           1.380          11.577           0.788          16.848          11.485          16.933
  1470           5.744           1.380          11.584           0.793          16.954          11.592          17.039
  1480           5.747           1.380          11.590           0.798          17.060          11.698          17.145
  1490           5.750           1.380          11.596           0.803          17.167          11.804          17.250
  1500           5.754           1.380          11.602           0.808          17.273          11.911          17.356
  1510           5.757           1.380          11.608           0.813          17.380          12.017          17.462
  1520           5.760           1.380          11.614           0.818          17.486          12.124          17.568
  1530           5.763           1.380          11.620           0.823          17.593          12.231          17.674
  1540           5.766           1.380          11.626           0.828          17.700          12.337          17.781
  1550           5.769           1.380          11.631           0.833          17.806          12.444          17.887
  1560           5.772           1.380          11.637           0.838          17.913          12.551          17.993
  1570           5.774           1.380          11.642           0.843          18.020          12.658          18.099
  1580           5.777           1.380          11.647           0.848          18.127          12.765          18.206
  1590           5.780           1.380          11.652           0.853          18.234          12.872          18.312
  1600           5.783           1.380          11.657           0.858          18.341          12.979          18.418
  1610           5.785           1.380          11.662           0.863          18.448          13.086          18.525
  1620           5.788           1.380          11.667           0.868          18.555          13.193          18.632
  1630           5.790           1.380          11.672           0.873          18.662          13.300          18.738
