#   T(K)    C_v(k_B/fu)        Gamma     alpha_v*10^6(K^-1)   E_th(eV)                       P_th(GPa)
#                                                                         ----------------------------------------------
#                                                                          {sum G_i.U_iV}  {int G.C_v/V dT}    {G.U/V}
# ----------------------------------------------------------------------------------------------------------------------
    10           0.007           0.362           0.003           0.170           0.837           0.000           0.246
    20           0.131           0.691           0.127           0.170           0.838           0.000           0.469
    30           0.443           0.862           0.537           0.170           0.838           0.002           0.586
    40           0.845           0.943           1.121           0.171           0.840           0.004           0.644
    50           1.256           1.010           1.784           0.172           0.844           0.009           0.693
    60           1.655           1.076           2.504           0.173           0.849           0.015           0.744
    70           2.043           1.139           3.271           0.175           0.856           0.023           0.794
    80           2.425           1.193           4.065           0.177           0.865           0.033           0.841
    90           2.801           1.236           4.866           0.179           0.876           0.045           0.882
   100           3.171           1.268           5.654           0.181           0.889           0.059           0.918
   110           3.532           1.292           6.414           0.184           0.904           0.074           0.950
   120           3.880           1.308           7.134           0.188           0.920           0.092           0.979
   130           4.212           1.319           7.810           0.191           0.939           0.111           1.006
   140           4.526           1.326           8.438           0.195           0.958           0.131           1.031
   150           4.822           1.330           9.018           0.199           0.980           0.153           1.055
   160           5.099           1.332           9.551           0.203           1.003           0.177           1.080
   170           5.357           1.333          10.039           0.208           1.026           0.201           1.104
   180           5.596           1.333          10.485           0.212           1.052           0.227           1.129
   190           5.817           1.332          10.893           0.217           1.078           0.254           1.155
   200           6.021           1.331          11.265           0.222           1.105           0.281           1.181
   210           6.210           1.329          11.605           0.228           1.133           0.310           1.208
   220           6.384           1.328          11.915           0.233           1.162           0.339           1.235
   230           6.544           1.326          12.199           0.239           1.191           0.369           1.263
   240           6.692           1.324          12.458           0.244           1.221           0.399           1.291
   250           6.828           1.323          12.696           0.250           1.252           0.430           1.320
   260           6.954           1.321          12.914           0.256           1.283           0.462           1.350
   270           7.070           1.319          13.114           0.262           1.315           0.494           1.380
   280           7.178           1.318          13.298           0.268           1.347           0.526           1.411
   290           7.277           1.316          13.467           0.275           1.380           0.559           1.442
   300           7.370           1.315          13.624           0.281           1.413           0.593           1.474
   310           7.455           1.314          13.768           0.287           1.447           0.626           1.506
   320           7.534           1.313          13.902           0.294           1.481           0.660           1.538
   330           7.608           1.311          14.025           0.300           1.515           0.695           1.571
   340           7.677           1.310          14.140           0.307           1.549           0.729           1.604
   350           7.741           1.309          14.247           0.313           1.584           0.764           1.637
   360           7.801           1.308          14.346           0.320           1.619           0.799           1.671
   370           7.856           1.307          14.438           0.327           1.654           0.834           1.705
   380           7.909           1.307          14.524           0.334           1.690           0.870           1.739
   390           7.957           1.306          14.605           0.341           1.725           0.906           1.774
   400           8.003           1.305          14.680           0.347           1.761           0.942           1.809
   410           8.046           1.304          14.751           0.354           1.797           0.978           1.844
   420           8.086           1.304          14.817           0.361           1.833           1.014           1.879
   430           8.124           1.303          14.879           0.368           1.870           1.050           1.914
   440           8.160           1.302          14.937           0.375           1.906           1.087           1.950
   450           8.193           1.302          14.992           0.382           1.943           1.124           1.986
   460           8.225           1.301          15.044           0.389           1.979           1.160           2.021
   470           8.255           1.301          15.092           0.396           2.016           1.197           2.057
   480           8.283           1.300          15.138           0.404           2.053           1.234           2.094
   490           8.310           1.300          15.182           0.411           2.090           1.271           2.130
   500           8.335           1.299          15.223           0.418           2.127           1.309           2.166
   510           8.359           1.299          15.262           0.425           2.165           1.346           2.203
   520           8.382           1.298          15.298           0.432           2.202           1.383           2.240
   530           8.404           1.298          15.333           0.440           2.240           1.421           2.277
   540           8.424           1.298          15.366           0.447           2.277           1.458           2.313
   550           8.444           1.297          15.398           0.454           2.315           1.496           2.350
   560           8.462           1.297          15.428           0.461           2.352           1.534           2.388
   570           8.480           1.297          15.456           0.469           2.390           1.572           2.425
   580           8.496           1.296          15.483           0.476           2.428           1.610           2.462
   590           8.512           1.296          15.509           0.483           2.466           1.647           2.499
   600           8.528           1.296          15.534           0.491           2.504           1.685           2.537
   610           8.542           1.296          15.557           0.498           2.542           1.724           2.574
   620           8.556           1.295          15.579           0.505           2.580           1.762           2.612
   630           8.570           1.295          15.601           0.513           2.618           1.800           2.650
   640           8.582           1.295          15.621           0.520           2.656           1.838           2.687
   650           8.594           1.295          15.641           0.528           2.695           1.876           2.725
   660           8.606           1.294          15.659           0.535           2.733           1.915           2.763
   670           8.617           1.294          15.677           0.542           2.771           1.953           2.801
   680           8.628           1.294          15.694           0.550           2.810           1.991           2.839
   690           8.638           1.294          15.711           0.557           2.848           2.030           2.877
   700           8.648           1.294          15.727           0.565           2.886           2.068           2.915
   710           8.658           1.294          15.742           0.572           2.925           2.107           2.953
   720           8.667           1.293          15.756           0.580           2.963           2.145           2.991
   730           8.675           1.293          15.770           0.587           3.002           2.184           3.029
   740           8.684           1.293          15.784           0.595           3.041           2.222           3.068
   750           8.692           1.293          15.797           0.602           3.079           2.261           3.106
   760           8.700           1.293          15.809           0.610           3.118           2.300           3.144
   770           8.707           1.293          15.821           0.617           3.157           2.338           3.182
   780           8.714           1.292          15.833           0.625           3.195           2.377           3.221
   790           8.721           1.292          15.844           0.632           3.234           2.416           3.259
   800           8.728           1.292          15.855           0.640           3.273           2.455           3.298
   810           8.735           1.292          15.865           0.647           3.312           2.494           3.336
   820           8.741           1.292          15.875           0.655           3.350           2.532           3.375
   830           8.747           1.292          15.884           0.662           3.389           2.571           3.413
   840           8.753           1.292          15.894           0.670           3.428           2.610           3.452
   850           8.758           1.292          15.903           0.677           3.467           2.649           3.491
   860           8.764           1.292          15.911           0.685           3.506           2.688           3.529
   870           8.769           1.292          15.920           0.692           3.545           2.727           3.568
   880           8.774           1.291          15.928           0.700           3.584           2.766           3.607
   890           8.779           1.291          15.936           0.707           3.623           2.805           3.645
   900           8.784           1.291          15.943           0.715           3.662           2.844           3.684
   910           8.788           1.291          15.951           0.723           3.701           2.883           3.723
   920           8.793           1.291          15.958           0.730           3.740           2.922           3.762
   930           8.797           1.291          15.965           0.738           3.779           2.961           3.800
   940           8.801           1.291          15.971           0.745           3.818           3.000           3.839
   950           8.805           1.291          15.978           0.753           3.857           3.039           3.878
   960           8.809           1.291          15.984           0.761           3.896           3.078           3.917
   970           8.813           1.291          15.990           0.768           3.935           3.117           3.956
   980           8.817           1.291          15.996           0.776           3.974           3.156           3.995
   990           8.821           1.291          16.002           0.783           4.013           3.196           4.034
  1000           8.824           1.291          16.007           0.791           4.053           3.235           4.073
  1010           8.827           1.290          16.013           0.799           4.092           3.274           4.112
  1020           8.831           1.290          16.018           0.806           4.131           3.313           4.151
  1030           8.834           1.290          16.023           0.814           4.170           3.352           4.190
  1040           8.837           1.290          16.028           0.821           4.209           3.391           4.229
  1050           8.840           1.290          16.033           0.829           4.248           3.431           4.268
  1060           8.843           1.290          16.038           0.837           4.288           3.470           4.307
  1070           8.846           1.290          16.042           0.844           4.327           3.509           4.346
  1080           8.849           1.290          16.047           0.852           4.366           3.548           4.385
  1090           8.851           1.290          16.051           0.859           4.405           3.588           4.424
  1100           8.854           1.290          16.055           0.867           4.445           3.627           4.463
  1110           8.857           1.290          16.059           0.875           4.484           3.666           4.502
  1120           8.859           1.290          16.063           0.882           4.523           3.705           4.541
  1130           8.862           1.290          16.067           0.890           4.563           3.745           4.580
  1140           8.864           1.290          16.071           0.898           4.602           3.784           4.620
  1150           8.866           1.290          16.074           0.905           4.641           3.823           4.659
  1160           8.869           1.290          16.078           0.913           4.680           3.863           4.698
  1170           8.871           1.290          16.082           0.921           4.720           3.902           4.737
  1180           8.873           1.290          16.085           0.928           4.759           3.941           4.776
  1190           8.875           1.290          16.088           0.936           4.799           3.981           4.815
  1200           8.877           1.290          16.092           0.943           4.838           4.020           4.855
  1210           8.879           1.290          16.095           0.951           4.877           4.059           4.894
  1220           8.881           1.289          16.098           0.959           4.917           4.099           4.933
  1230           8.883           1.289          16.101           0.966           4.956           4.138           4.972
  1240           8.885           1.289          16.104           0.974           4.995           4.178           5.012
  1250           8.887           1.289          16.107           0.982           5.035           4.217           5.051
  1260           8.888           1.289          16.109           0.989           5.074           4.256           5.090
  1270           8.890           1.289          16.112           0.997           5.114           4.296           5.129
  1280           8.892           1.289          16.115           1.005           5.153           4.335           5.169
  1290           8.893           1.289          16.117           1.012           5.192           4.375           5.208
  1300           8.895           1.289          16.120           1.020           5.232           4.414           5.247
  1310           8.897           1.289          16.123           1.028           5.271           4.454           5.287
  1320           8.898           1.289          16.125           1.035           5.311           4.493           5.326
  1330           8.900           1.289          16.127           1.043           5.350           4.532           5.365
  1340           8.901           1.289          16.130           1.051           5.390           4.572           5.405
  1350           8.903           1.289          16.132           1.058           5.429           4.611           5.444
  1360           8.904           1.289          16.134           1.066           5.469           4.651           5.483
  1370           8.905           1.289          16.136           1.074           5.508           4.690           5.523
  1380           8.907           1.289          16.139           1.081           5.547           4.730           5.562
  1390           8.908           1.289          16.141           1.089           5.587           4.769           5.601
  1400           8.909           1.289          16.143           1.097           5.626           4.809           5.641
  1410           8.911           1.289          16.145           1.104           5.666           4.848           5.680
  1420           8.912           1.289          16.147           1.112           5.705           4.888           5.720
  1430           8.913           1.289          16.149           1.120           5.745           4.927           5.759
  1440           8.914           1.289          16.150           1.128           5.784           4.967           5.798
  1450           8.915           1.289          16.152           1.135           5.824           5.006           5.838
  1460           8.917           1.289          16.154           1.143           5.863           5.046           5.877
  1470           8.918           1.289          16.156           1.151           5.903           5.085           5.917
  1480           8.919           1.289          16.158           1.158           5.942           5.125           5.956
  1490           8.920           1.289          16.159           1.166           5.982           5.164           5.996
  1500           8.921           1.289          16.161           1.174           6.022           5.204           6.035
  1510           8.922           1.289          16.163           1.181           6.061           5.243           6.074
  1520           8.923           1.289          16.164           1.189           6.101           5.283           6.114
  1530           8.924           1.289          16.166           1.197           6.140           5.322           6.153
  1540           8.925           1.289          16.167           1.204           6.180           5.362           6.193
  1550           8.926           1.289          16.169           1.212           6.219           5.402           6.232
  1560           8.927           1.289          16.170           1.220           6.259           5.441           6.272
  1570           8.928           1.289          16.172           1.227           6.298           5.481           6.311
  1580           8.929           1.289          16.173           1.235           6.338           5.520           6.351
  1590           8.930           1.289          16.175           1.243           6.377           5.560           6.390
  1600           8.930           1.289          16.176           1.251           6.417           5.599           6.430
  1610           8.931           1.289          16.177           1.258           6.457           5.639           6.469
  1620           8.932           1.289          16.179           1.266           6.496           5.678           6.509
  1630           8.933           1.289          16.180           1.274           6.536           5.718           6.548
  1640           8.934           1.289          16.181           1.281           6.575           5.758           6.588
