# Macroscopic dielectric function obtained with the BS equation.
#  RPA L0 with KS energies and KS wavefunctions     LOCAL FIELD EFFECTS INCLUDED
# RESONANT-ONLY calculation
# Coulomb term constructed with full W(G1,G2)
# Scissor operator energy =  5.2000 [eV]
# Tolerance =  0.0200 0.0200
# npweps  = 27
# npwwfn  = 307
# nbands  = 7
# loband  = 2
# nkibz   = 3
# nkbz    = 8
# Lorentzian broadening =  0.1500 [eV]
# List of q-points for the optical limit:
# q =  0.707858, 0.000000, 0.000000, [Reduced coords] 
# q =  0.000000, 0.707858, 0.000000, [Reduced coords] 
# q =  0.000000, 0.000000, 0.707858, [Reduced coords] 
# q =  0.000000, 0.613023, 0.613023, [Reduced coords] 
# q =  0.613023, 0.000000, 0.613023, [Reduced coords] 
# q =  0.613023, 0.613023, 0.000000, [Reduced coords] 
# omega [eV]    RE(eps(q=1)) IM(eps(q=1) RE(eps(q=2) ) ... 
  0.000    1.8320    0.0000    1.8319    0.0000    1.8323    0.0000    1.8322    0.0000    1.8320    0.0000    1.8319    0.0000
  0.100    1.8320    0.0002    1.8320    0.0002    1.8323    0.0002    1.8323    0.0002    1.8321    0.0002    1.8320    0.0002
  0.200    1.8322    0.0004    1.8321    0.0004    1.8325    0.0004    1.8325    0.0004    1.8322    0.0004    1.8322    0.0004
  0.300    1.8325    0.0005    1.8324    0.0005    1.8328    0.0005    1.8328    0.0005    1.8325    0.0005    1.8325    0.0005
  0.400    1.8329    0.0007    1.8328    0.0007    1.8332    0.0007    1.8332    0.0007    1.8330    0.0007    1.8329    0.0007
  0.500    1.8335    0.0009    1.8334    0.0009    1.8337    0.0009    1.8337    0.0009    1.8335    0.0009    1.8334    0.0009
  0.600    1.8341    0.0011    1.8340    0.0011    1.8344    0.0011    1.8344    0.0011    1.8341    0.0011    1.8341    0.0011
  0.700    1.8349    0.0013    1.8348    0.0013    1.8352    0.0013    1.8352    0.0013    1.8349    0.0013    1.8348    0.0013
  0.800    1.8358    0.0014    1.8357    0.0014    1.8361    0.0014    1.8361    0.0014    1.8358    0.0014    1.8357    0.0014
  0.900    1.8368    0.0016    1.8367    0.0016    1.8371    0.0016    1.8371    0.0016    1.8368    0.0016    1.8368    0.0016
  1.000    1.8380    0.0018    1.8379    0.0018    1.8382    0.0018    1.8382    0.0018    1.8380    0.0018    1.8379    0.0018
  1.100    1.8392    0.0020    1.8391    0.0020    1.8395    0.0020    1.8395    0.0020    1.8393    0.0020    1.8392    0.0020
  1.200    1.8406    0.0022    1.8405    0.0022    1.8409    0.0022    1.8409    0.0022    1.8407    0.0022    1.8406    0.0022
  1.300    1.8421    0.0024    1.8421    0.0024    1.8424    0.0024    1.8424    0.0024    1.8422    0.0024    1.8421    0.0024
  1.400    1.8438    0.0026    1.8437    0.0026    1.8441    0.0026    1.8441    0.0026    1.8438    0.0026    1.8437    0.0026
  1.500    1.8456    0.0028    1.8455    0.0028    1.8459    0.0028    1.8458    0.0028    1.8456    0.0028    1.8455    0.0028
  1.600    1.8475    0.0030    1.8474    0.0030    1.8478    0.0030    1.8478    0.0030    1.8475    0.0030    1.8474    0.0030
  1.700    1.8495    0.0032    1.8494    0.0032    1.8498    0.0032    1.8498    0.0032    1.8496    0.0032    1.8495    0.0032
  1.800    1.8517    0.0034    1.8516    0.0034    1.8520    0.0034    1.8520    0.0034    1.8517    0.0034    1.8517    0.0034
  1.900    1.8540    0.0036    1.8539    0.0036    1.8543    0.0036    1.8543    0.0036    1.8541    0.0036    1.8540    0.0036
  2.000    1.8565    0.0038    1.8564    0.0038    1.8568    0.0038    1.8568    0.0038    1.8565    0.0038    1.8564    0.0038
  2.100    1.8591    0.0040    1.8590    0.0040    1.8594    0.0040    1.8594    0.0040    1.8591    0.0040    1.8590    0.0040
  2.200    1.8618    0.0042    1.8618    0.0042    1.8621    0.0042    1.8621    0.0042    1.8619    0.0042    1.8618    0.0042
  2.300    1.8647    0.0045    1.8647    0.0045    1.8650    0.0045    1.8650    0.0045    1.8648    0.0045    1.8647    0.0045
  2.400    1.8678    0.0047    1.8677    0.0047    1.8681    0.0047    1.8681    0.0047    1.8678    0.0047    1.8677    0.0047
  2.500    1.8710    0.0049    1.8709    0.0049    1.8713    0.0049    1.8713    0.0049    1.8710    0.0049    1.8709    0.0049
  2.600    1.8744    0.0052    1.8743    0.0052    1.8747    0.0052    1.8746    0.0052    1.8744    0.0052    1.8743    0.0052
  2.700    1.8779    0.0054    1.8778    0.0054    1.8782    0.0054    1.8782    0.0054    1.8779    0.0054    1.8778    0.0054
  2.800    1.8816    0.0057    1.8815    0.0057    1.8819    0.0057    1.8819    0.0057    1.8816    0.0057    1.8815    0.0057
  2.900    1.8854    0.0059    1.8853    0.0059    1.8857    0.0059    1.8857    0.0059    1.8855    0.0059    1.8854    0.0059
  3.000    1.8895    0.0062    1.8894    0.0062    1.8898    0.0062    1.8898    0.0062    1.8895    0.0062    1.8894    0.0062
  3.100    1.8937    0.0065    1.8936    0.0065    1.8940    0.0065    1.8940    0.0065    1.8937    0.0065    1.8936    0.0065
  3.200    1.8981    0.0067    1.8980    0.0067    1.8984    0.0067    1.8984    0.0067    1.8981    0.0067    1.8980    0.0067
  3.300    1.9027    0.0070    1.9026    0.0070    1.9030    0.0070    1.9030    0.0070    1.9027    0.0070    1.9026    0.0070
  3.400    1.9075    0.0073    1.9074    0.0073    1.9078    0.0073    1.9077    0.0073    1.9075    0.0073    1.9074    0.0073
  3.500    1.9124    0.0076    1.9123    0.0076    1.9127    0.0076    1.9127    0.0076    1.9125    0.0076    1.9124    0.0076
  3.600    1.9176    0.0080    1.9175    0.0080    1.9179    0.0080    1.9179    0.0080    1.9177    0.0080    1.9176    0.0080
  3.700    1.9230    0.0083    1.9229    0.0083    1.9234    0.0083    1.9233    0.0083    1.9231    0.0083    1.9230    0.0083
  3.800    1.9287    0.0086    1.9286    0.0086    1.9290    0.0086    1.9290    0.0086    1.9287    0.0086    1.9286    0.0086
  3.900    1.9345    0.0090    1.9344    0.0090    1.9348    0.0090    1.9348    0.0090    1.9346    0.0090    1.9345    0.0090
  4.000    1.9406    0.0093    1.9405    0.0093    1.9409    0.0093    1.9409    0.0093    1.9407    0.0093    1.9406    0.0093
  4.100    1.9470    0.0097    1.9469    0.0097    1.9473    0.0097    1.9473    0.0097    1.9470    0.0097    1.9469    0.0097
  4.200    1.9536    0.0101    1.9535    0.0101    1.9539    0.0101    1.9539    0.0101    1.9536    0.0101    1.9535    0.0101
  4.300    1.9604    0.0105    1.9603    0.0105    1.9607    0.0105    1.9607    0.0105    1.9605    0.0105    1.9604    0.0105
  4.400    1.9676    0.0109    1.9675    0.0109    1.9679    0.0109    1.9679    0.0109    1.9676    0.0109    1.9675    0.0109
  4.500    1.9750    0.0114    1.9749    0.0114    1.9753    0.0114    1.9753    0.0114    1.9750    0.0114    1.9749    0.0114
  4.600    1.9827    0.0118    1.9826    0.0118    1.9830    0.0118    1.9830    0.0118    1.9827    0.0118    1.9826    0.0118
  4.700    1.9908    0.0123    1.9906    0.0123    1.9911    0.0123    1.9911    0.0123    1.9908    0.0123    1.9907    0.0123
  4.800    1.9991    0.0128    1.9990    0.0128    1.9994    0.0128    1.9994    0.0128    1.9991    0.0128    1.9990    0.0128
  4.900    2.0078    0.0133    2.0077    0.0133    2.0081    0.0133    2.0081    0.0133    2.0078    0.0133    2.0077    0.0133
  5.000    2.0169    0.0139    2.0167    0.0139    2.0172    0.0139    2.0172    0.0139    2.0169    0.0139    2.0168    0.0139
  5.100    2.0263    0.0144    2.0262    0.0144    2.0266    0.0144    2.0266    0.0144    2.0263    0.0144    2.0262    0.0144
  5.200    2.0361    0.0150    2.0360    0.0150    2.0364    0.0150    2.0364    0.0150    2.0361    0.0150    2.0360    0.0150
  5.300    2.0463    0.0157    2.0462    0.0157    2.0466    0.0157    2.0466    0.0157    2.0463    0.0157    2.0462    0.0157
  5.400    2.0569    0.0163    2.0568    0.0163    2.0573    0.0163    2.0572    0.0163    2.0570    0.0163    2.0569    0.0163
  5.500    2.0680    0.0170    2.0679    0.0170    2.0684    0.0170    2.0683    0.0170    2.0680    0.0170    2.0679    0.0170
  5.600    2.0796    0.0177    2.0795    0.0177    2.0799    0.0177    2.0799    0.0177    2.0796    0.0177    2.0795    0.0177
  5.700    2.0916    0.0185    2.0915    0.0185    2.0920    0.0185    2.0920    0.0185    2.0917    0.0185    2.0916    0.0185
  5.800    2.1042    0.0193    2.1041    0.0193    2.1046    0.0193    2.1046    0.0193    2.1042    0.0193    2.1041    0.0193
  5.900    2.1174    0.0202    2.1172    0.0202    2.1177    0.0202    2.1177    0.0202    2.1174    0.0202    2.1173    0.0202
  6.000    2.1311    0.0211    2.1310    0.0211    2.1314    0.0211    2.1314    0.0211    2.1311    0.0211    2.1310    0.0211
  6.100    2.1454    0.0221    2.1453    0.0220    2.1458    0.0221    2.1458    0.0221    2.1455    0.0220    2.1453    0.0220
  6.200    2.1604    0.0231    2.1603    0.0231    2.1608    0.0231    2.1608    0.0231    2.1605    0.0231    2.1604    0.0231
  6.300    2.1762    0.0242    2.1760    0.0242    2.1765    0.0242    2.1765    0.0242    2.1762    0.0242    2.1761    0.0242
  6.400    2.1926    0.0253    2.1925    0.0253    2.1930    0.0253    2.1930    0.0253    2.1926    0.0253    2.1925    0.0253
  6.500    2.2099    0.0266    2.2097    0.0266    2.2102    0.0266    2.2102    0.0266    2.2099    0.0266    2.2098    0.0266
  6.600    2.2280    0.0279    2.2278    0.0279    2.2283    0.0279    2.2283    0.0279    2.2280    0.0279    2.2278    0.0279
  6.700    2.2470    0.0293    2.2468    0.0293    2.2473    0.0293    2.2473    0.0293    2.2470    0.0293    2.2468    0.0293
  6.800    2.2669    0.0308    2.2668    0.0308    2.2673    0.0308    2.2673    0.0308    2.2669    0.0308    2.2668    0.0308
  6.900    2.2879    0.0324    2.2878    0.0324    2.2883    0.0325    2.2883    0.0325    2.2880    0.0324    2.2878    0.0324
  7.000    2.3101    0.0342    2.3099    0.0342    2.3105    0.0342    2.3105    0.0342    2.3101    0.0342    2.3100    0.0342
  7.100    2.3334    0.0361    2.3333    0.0361    2.3339    0.0361    2.3338    0.0361    2.3335    0.0361    2.3333    0.0361
  7.200    2.3581    0.0382    2.3579    0.0381    2.3585    0.0382    2.3585    0.0382    2.3581    0.0382    2.3580    0.0382
  7.300    2.3842    0.0404    2.3840    0.0404    2.3846    0.0404    2.3846    0.0404    2.3842    0.0404    2.3841    0.0404
  7.400    2.4118    0.0428    2.4116    0.0428    2.4122    0.0428    2.4122    0.0428    2.4118    0.0428    2.4117    0.0428
  7.500    2.4411    0.0455    2.4409    0.0454    2.4415    0.0455    2.4415    0.0455    2.4411    0.0455    2.4410    0.0454
  7.600    2.4722    0.0483    2.4720    0.0483    2.4727    0.0484    2.4726    0.0484    2.4722    0.0483    2.4721    0.0483
  7.700    2.5053    0.0515    2.5051    0.0515    2.5058    0.0515    2.5058    0.0515    2.5053    0.0515    2.5052    0.0515
  7.800    2.5407    0.0550    2.5404    0.0550    2.5412    0.0550    2.5411    0.0550    2.5407    0.0550    2.5405    0.0550
  7.900    2.5784    0.0589    2.5782    0.0589    2.5789    0.0589    2.5789    0.0589    2.5784    0.0589    2.5782    0.0589
  8.000    2.6188    0.0632    2.6186    0.0631    2.6194    0.0632    2.6193    0.0632    2.6188    0.0632    2.6187    0.0632
  8.100    2.6623    0.0679    2.6620    0.0679    2.6628    0.0680    2.6627    0.0680    2.6622    0.0679    2.6621    0.0679
  8.200    2.7090    0.0733    2.7087    0.0733    2.7095    0.0733    2.7095    0.0733    2.7090    0.0733    2.7088    0.0733
  8.300    2.7594    0.0793    2.7591    0.0792    2.7600    0.0793    2.7600    0.0793    2.7594    0.0793    2.7592    0.0793
  8.400    2.8141    0.0861    2.8137    0.0860    2.8147    0.0861    2.8146    0.0861    2.8141    0.0860    2.8139    0.0860
  8.500    2.8734    0.0938    2.8731    0.0937    2.8741    0.0938    2.8740    0.0938    2.8734    0.0938    2.8732    0.0937
  8.600    2.9382    0.1026    2.9378    0.1025    2.9389    0.1026    2.9388    0.1026    2.9382    0.1026    2.9380    0.1025
  8.700    3.0091    0.1127    3.0087    0.1127    3.0098    0.1128    3.0098    0.1128    3.0091    0.1127    3.0089    0.1127
  8.800    3.0872    0.1245    3.0868    0.1244    3.0879    0.1245    3.0879    0.1245    3.0872    0.1245    3.0869    0.1244
  8.900    3.1735    0.1382    3.1731    0.1382    3.1743    0.1383    3.1742    0.1383    3.1735    0.1382    3.1732    0.1382
  9.000    3.2695    0.1544    3.2690    0.1544    3.2703    0.1545    3.2703    0.1545    3.2695    0.1544    3.2692    0.1544
  9.100    3.3769    0.1738    3.3764    0.1737    3.3778    0.1739    3.3777    0.1739    3.3769    0.1738    3.3766    0.1737
  9.200    3.4980    0.1971    3.4974    0.1970    3.4990    0.1972    3.4989    0.1972    3.4980    0.1971    3.4976    0.1970
  9.300    3.6356    0.2256    3.6349    0.2255    3.6366    0.2258    3.6366    0.2258    3.6355    0.2256    3.6351    0.2255
  9.400    3.7933    0.2610    3.7926    0.2609    3.7945    0.2612    3.7944    0.2612    3.7933    0.2610    3.7928    0.2609
  9.500    3.9760    0.3056    3.9753    0.3055    3.9774    0.3058    3.9773    0.3058    3.9760    0.3056    3.9755    0.3055
  9.600    4.1903    0.3631    4.1894    0.3629    4.1918    0.3634    4.1917    0.3634    4.1903    0.3631    4.1897    0.3629
  9.700    4.4451    0.4388    4.4441    0.4386    4.4468    0.4392    4.4467    0.4392    4.4451    0.4389    4.4444    0.4387
  9.800    4.7529    0.5415    4.7518    0.5413    4.7550    0.5421    4.7549    0.5421    4.7530    0.5416    4.7521    0.5413
  9.900    5.1321    0.6857    5.1308    0.6853    5.1345    0.6865    5.1345    0.6866    5.1322    0.6858    5.1311    0.6854
 10.000    5.6094    0.8967    5.6078    0.8962    5.6124    0.8979    5.6123    0.8979    5.6096    0.8969    5.6082    0.8962
 10.100    6.2251    1.2221    6.2232    1.2213    6.2289    1.2240    6.2289    1.2241    6.2254    1.2224    6.2237    1.2214
 10.200    7.0392    1.7588    7.0368    1.7576    7.0441    1.7621    7.0441    1.7623    7.0397    1.7594    7.0374    1.7577
 10.300    8.1288    2.7228    8.1258    2.7207    8.1352    2.7290    8.1352    2.7294    8.1295    2.7241    8.1264    2.7209
 10.400    9.5068    4.6416    9.5033    4.6374    9.5143    4.6544    9.5142    4.6552    9.5076    4.6445    9.5041    4.6378
 10.500   10.4845    8.7627   10.4824    8.7542   10.4851    8.7899   10.4842    8.7917   10.4831    8.7690   10.4834    8.7547
 10.600    6.8185   15.6024    6.8263   15.5919    6.7806   15.6304    6.7763   15.6316    6.8064   15.6077    6.8277   15.5933
 10.700   -3.3845   15.1962   -3.3747   15.1988   -3.4199   15.1689   -3.4229   15.1645   -3.3939   15.1852   -3.3746   15.2014
 10.800   -6.4998    8.3935   -6.4975    8.3971   -6.4997    8.3693   -6.4987    8.3659   -6.4980    8.3847   -6.4986    8.3987
 10.900   -5.4184    4.4817   -5.4178    4.4832   -5.4124    4.4705   -5.4109    4.4688   -5.4151    4.4775   -5.4189    4.4840
 11.000   -4.0399    2.6624   -4.0394    2.6630   -4.0347    2.6570   -4.0334    2.6562   -4.0371    2.6603   -4.0403    2.6634
 11.100   -2.9519    1.7461   -2.9514    1.7463   -2.9480    1.7432   -2.9470    1.7428   -2.9497    1.7449   -2.9522    1.7466
 11.200   -2.1290    1.2370   -2.1285    1.2371   -2.1260    1.2354   -2.1252    1.2351   -2.1272    1.2363   -2.1291    1.2373
 11.300   -1.4937    0.9313   -1.4931    0.9313   -1.4913    0.9303   -1.4906    0.9301   -1.4922    0.9308   -1.4937    0.9314
 11.400   -0.9868    0.7371   -0.9863    0.7371   -0.9849    0.7364   -0.9843    0.7363   -0.9855    0.7368   -0.9868    0.7372
 11.500   -0.5681    0.6093   -0.5676    0.6093   -0.5665    0.6089   -0.5660    0.6088   -0.5670    0.6091   -0.5681    0.6093
 11.600   -0.2103    0.5240   -0.2098    0.5240   -0.2088    0.5238   -0.2084    0.5237   -0.2093    0.5239   -0.2102    0.5241
 11.700    0.1062    0.4682    0.1067    0.4682    0.1075    0.4680    0.1080    0.4680    0.1071    0.4681    0.1063    0.4682
 11.800    0.3959    0.4346    0.3963    0.4345    0.3971    0.4345    0.3975    0.4344    0.3968    0.4345    0.3960    0.4346
 11.900    0.6706    0.4194    0.6710    0.4193    0.6718    0.4193    0.6722    0.4193    0.6714    0.4193    0.6707    0.4193
 12.000    0.9409    0.4216    0.9412    0.4216    0.9420    0.4217    0.9424    0.4216    0.9416    0.4216    0.9409    0.4216
 12.100    1.2173    0.4428    1.2176    0.4428    1.2185    0.4429    1.2189    0.4429    1.2180    0.4428    1.2173    0.4428
 12.200    1.5117    0.4876    1.5120    0.4875    1.5130    0.4878    1.5134    0.4878    1.5125    0.4876    1.5118    0.4875
 12.300    1.8393    0.5654    1.8395    0.5652    1.8408    0.5658    1.8412    0.5658    1.8401    0.5655    1.8393    0.5653
 12.400    2.2204    0.6948    2.2205    0.6945    2.2221    0.6954    2.2225    0.6954    2.2212    0.6949    2.2203    0.6946
 12.500    2.6842    0.9131    2.6842    0.9127    2.6863    0.9141    2.6868    0.9142    2.6851    0.9134    2.6840    0.9128
 12.600    3.2712    1.3009    3.2710    1.3002    3.2738    1.3028    3.2743    1.3030    3.2722    1.3014    3.2708    1.3003
 12.700    4.0186    2.0483    4.0182    2.0469    4.0218    2.0522    4.0224    2.0525    4.0198    2.0494    4.0181    2.0472
 12.800    4.8184    3.6284    4.8183    3.6254    4.8209    3.6368    4.8215    3.6373    4.8194    3.6307    4.8182    3.6259
 12.900    4.5174    6.8668    4.5210    6.8615    4.5103    6.8817    4.5105    6.8827    4.5156    6.8709    4.5203    6.8624
 13.000   -0.0783    9.4081   -0.0692    9.4096   -0.1007    9.4058   -0.1013    9.4065   -0.0843    9.4072   -0.0707    9.4095
 13.100   -3.9814    6.2488   -3.9795    6.2549   -3.9860    6.2346   -3.9863    6.2347   -3.9823    6.2446   -3.9800    6.2540
 13.200   -3.9420    3.2789   -3.9429    3.2820   -3.9392    3.2715   -3.9394    3.2715   -3.9407    3.2767   -3.9429    3.2816
 13.300   -3.1402    1.8652   -3.1411    1.8667   -3.1372    1.8617   -3.1373    1.8618   -3.1389    1.8642   -3.1412    1.8665
 13.400   -2.4422    1.1818   -2.4429    1.1825   -2.4399    1.1800   -2.4399    1.1800   -2.4411    1.1812   -2.4430    1.1824
 13.500   -1.9094    0.8157   -1.9099    0.8161   -1.9076    0.8147   -1.9076    0.8147   -1.9085    0.8154   -1.9100    0.8161
 13.600   -1.5016    0.6007   -1.5018    0.6010   -1.5001    0.6001   -1.5001    0.6001   -1.5008    0.6005   -1.5020    0.6010
 13.700   -1.1809    0.4652   -1.1810    0.4654   -1.1797    0.4648   -1.1797    0.4648   -1.1801    0.4651   -1.1811    0.4654
 13.800   -0.9211    0.3751   -0.9211    0.3752   -0.9201    0.3748   -0.9201    0.3748   -0.9204    0.3750   -0.9213    0.3752
 13.900   -0.7045    0.3129   -0.7045    0.3130   -0.7036    0.3128   -0.7036    0.3128   -0.7039    0.3129   -0.7046    0.3130
 14.000   -0.5191    0.2691   -0.5190    0.2692   -0.5183    0.2689   -0.5183    0.2689   -0.5185    0.2690   -0.5192    0.2692
 14.100   -0.3563    0.2380   -0.3561    0.2381   -0.3555    0.2379   -0.3555    0.2379   -0.3556    0.2380   -0.3563    0.2380
 14.200   -0.2096    0.2165   -0.2094    0.2165   -0.2089    0.2164   -0.2089    0.2164   -0.2090    0.2165   -0.2096    0.2165
 14.300   -0.0740    0.2028   -0.0738    0.2028   -0.0734    0.2027   -0.0734    0.2027   -0.0734    0.2028   -0.0740    0.2028
 14.400    0.0549    0.1963    0.0552    0.1964    0.0555    0.1963    0.0555    0.1963    0.0556    0.1963    0.0550    0.1964
 14.500    0.1814    0.1974    0.1817    0.1975    0.1821    0.1975    0.1821    0.1974    0.1821    0.1975    0.1816    0.1975
 14.600    0.3102    0.2079    0.3106    0.2080    0.3109    0.2080    0.3109    0.2080    0.3110    0.2080    0.3104    0.2080
 14.700    0.4470    0.2319    0.4474    0.2320    0.4477    0.2321    0.4477    0.2320    0.4478    0.2321    0.4472    0.2320
 14.800    0.5993    0.2780    0.5997    0.2781    0.6001    0.2783    0.6001    0.2782    0.6002    0.2782    0.5996    0.2782
