# Macroscopic dielectric function obtained with the BS equation.
#  RPA L0 with KS energies and KS wavefunctions     LOCAL FIELD EFFECTS INCLUDED
# RESONANT-ONLY calculation
# Coulomb term constructed with full W(G1,G2)
# Scissor operator energy =  0.8000 [eV]
# nstates included in the diagonalization = 96
# npweps  = 113
# npwwfn  = 283
# nbands  = 8
# loband  = 2
# nkibz   = 3
# nkbz    = 8
# Lorentzian broadening =  0.0000 [eV]
# List of q-points for the optical limit:
# q =  0.938821, 0.000000, 0.000000, [Reduced coords] 
# q =  0.000000, 0.938821, 0.000000, [Reduced coords] 
# q =  0.000000, 0.000000, 0.938821, [Reduced coords] 
# q =  0.000000, 0.813043, 0.813043, [Reduced coords] 
# q =  0.813043, 0.000000, 0.813043, [Reduced coords] 
# q =  0.813043, 0.813043, 0.000000, [Reduced coords] 
# omega [eV]    RE(eps(q=1)) IM(eps(q=1) RE(eps(q=2) ) ... DOS   IDOS
  0.000   55.7213    0.2854   55.6761    0.3546   55.6836    0.3536   55.6840    0.2675   55.7823    0.3416   55.7908    0.3501   -0.0000   -0.0000
  0.010   55.7218    0.2924   55.6766    0.3617   55.6842    0.3608   55.6845    0.2745   55.7828    0.3489   55.7913    0.3574   -0.0000   -0.0000
  0.020   55.7235    0.2994   55.6782    0.3689   55.6858    0.3679   55.6862    0.2815   55.7845    0.3562   55.7930    0.3647   -0.0000   -0.0000
  0.030   55.7263    0.3064   55.6810    0.3761   55.6886    0.3751   55.6890    0.2886   55.7872    0.3636   55.7957    0.3721   -0.0000   -0.0000
  0.040   55.7303    0.3134   55.6849    0.3833   55.6925    0.3823   55.6930    0.2957   55.7911    0.3710   55.7996    0.3795   -0.0000   -0.0000
  0.050   55.7354    0.3204   55.6899    0.3905   55.6975    0.3895   55.6980    0.3028   55.7962    0.3784   55.8047    0.3869   -0.0000   -0.0000
  0.060   55.7416    0.3274   55.6960    0.3978   55.7037    0.3968   55.7042    0.3099   55.8024    0.3859   55.8109    0.3943   -0.0000   -0.0000
  0.070   55.7489    0.3345   55.7033    0.4051   55.7109    0.4040   55.7116    0.3170   55.8097    0.3933   55.8182    0.4018   -0.0000   -0.0000
  0.080   55.7573    0.3416   55.7117    0.4124   55.7193    0.4113   55.7200    0.3242   55.8181    0.4008   55.8266    0.4092   -0.0000   -0.0000
  0.090   55.7669    0.3487   55.7212    0.4197   55.7289    0.4186   55.7296    0.3314   55.8277    0.4083   55.8362    0.4168   -0.0000   -0.0000
  0.100   55.7777    0.3559   55.7318    0.4271   55.7395    0.4260   55.7403    0.3386   55.8384    0.4159   55.8469    0.4243   -0.0000   -0.0000
  0.110   55.7895    0.3630   55.7436    0.4344   55.7513    0.4334   55.7521    0.3458   55.8502    0.4234   55.8587    0.4319   -0.0000   -0.0000
  0.120   55.8025    0.3702   55.7565    0.4419   55.7643    0.4408   55.7651    0.3531   55.8632    0.4310   55.8717    0.4394   -0.0000   -0.0000
  0.130   55.8166    0.3775   55.7705    0.4493   55.7783    0.4482   55.7792    0.3604   55.8773    0.4387   55.8858    0.4471   -0.0000   -0.0000
  0.140   55.8319    0.3847   55.7857    0.4568   55.7935    0.4557   55.7945    0.3677   55.8925    0.4463   55.9011    0.4547   -0.0000   -0.0000
  0.150   55.8483    0.3920   55.8020    0.4643   55.8098    0.4632   55.8109    0.3750   55.9089    0.4540   55.9175    0.4624   -0.0000   -0.0000
  0.160   55.8658    0.3993   55.8194    0.4718   55.8273    0.4707   55.8284    0.3824   55.9265    0.4618   55.9350    0.4701   -0.0000   -0.0000
  0.170   55.8845    0.4066   55.8380    0.4794   55.8459    0.4783   55.8471    0.3898   55.9452    0.4695   55.9537    0.4779   -0.0000   -0.0000
  0.180   55.9043    0.4140   55.8578    0.4870   55.8657    0.4859   55.8669    0.3972   55.9650    0.4773   55.9736    0.4857   -0.0000   -0.0000
  0.190   55.9253    0.4214   55.8787    0.4947   55.8866    0.4935   55.8879    0.4047   55.9860    0.4852   55.9946    0.4935   -0.0000   -0.0000
  0.200   55.9474    0.4288   55.9007    0.5024   55.9086    0.5012   55.9100    0.4121   56.0082    0.4930   56.0167    0.5014   -0.0000   -0.0000
  0.210   55.9707    0.4363   55.9239    0.5101   55.9318    0.5089   55.9333    0.4197   56.0315    0.5009   56.0400    0.5093   -0.0000   -0.0000
  0.220   55.9952    0.4438   55.9482    0.5179   55.9562    0.5167   55.9577    0.4272   56.0560    0.5089   56.0645    0.5172   -0.0000   -0.0000
  0.230   56.0208    0.4513   55.9737    0.5257   55.9817    0.5245   55.9833    0.4348   56.0816    0.5169   56.0902    0.5252   -0.0000   -0.0000
  0.240   56.0475    0.4589   56.0003    0.5335   56.0084    0.5323   56.0100    0.4425   56.1084    0.5249   56.1170    0.5332   -0.0000   -0.0000
  0.250   56.0755    0.4665   56.0282    0.5414   56.0362    0.5402   56.0379    0.4501   56.1364    0.5330   56.1449    0.5413   -0.0000   -0.0000
  0.260   56.1046    0.4742   56.0572    0.5493   56.0652    0.5481   56.0670    0.4578   56.1655    0.5411   56.1741    0.5494   -0.0000   -0.0000
  0.270   56.1349    0.4819   56.0873    0.5573   56.0954    0.5561   56.0973    0.4656   56.1958    0.5493   56.2044    0.5576   -0.0000   -0.0000
  0.280   56.1663    0.4896   56.1187    0.5653   56.1268    0.5641   56.1287    0.4734   56.2274    0.5575   56.2359    0.5658   -0.0000   -0.0000
  0.290   56.1990    0.4974   56.1512    0.5734   56.1593    0.5721   56.1614    0.4812   56.2600    0.5657   56.2686    0.5740   -0.0000   -0.0000
  0.300   56.2328    0.5052   56.1849    0.5815   56.1930    0.5802   56.1952    0.4891   56.2939    0.5740   56.3025    0.5823   -0.0000   -0.0000
  0.310   56.2678    0.5131   56.2198    0.5897   56.2279    0.5884   56.2302    0.4970   56.3290    0.5824   56.3376    0.5907   -0.0000   -0.0000
  0.320   56.3041    0.5210   56.2559    0.5979   56.2641    0.5966   56.2664    0.5050   56.3653    0.5908   56.3739    0.5991   -0.0000   -0.0000
  0.330   56.3415    0.5290   56.2931    0.6062   56.3014    0.6049   56.3038    0.5130   56.4028    0.5992   56.4114    0.6075   -0.0000   -0.0000
  0.340   56.3801    0.5370   56.3316    0.6145   56.3399    0.6132   56.3424    0.5211   56.4415    0.6077   56.4501    0.6160   -0.0000   -0.0000
  0.350   56.4200    0.5451   56.3713    0.6229   56.3796    0.6215   56.3822    0.5292   56.4814    0.6163   56.4900    0.6246   -0.0000   -0.0000
  0.360   56.4610    0.5532   56.4122    0.6313   56.4205    0.6300   56.4232    0.5373   56.5225    0.6249   56.5312    0.6332   -0.0000   -0.0000
  0.370   56.5033    0.5613   56.4544    0.6398   56.4627    0.6384   56.4655    0.5456   56.5649    0.6336   56.5735    0.6418   -0.0000   -0.0000
  0.380   56.5468    0.5696   56.4977    0.6484   56.5061    0.6470   56.5090    0.5538   56.6085    0.6423   56.6171    0.6506   -0.0000   -0.0000
  0.390   56.5915    0.5778   56.5423    0.6570   56.5507    0.6556   56.5537    0.5621   56.6533    0.6511   56.6620    0.6594   -0.0000   -0.0000
  0.400   56.6375    0.5862   56.5881    0.6656   56.5965    0.6642   56.5996    0.5705   56.6994    0.6600   56.7081    0.6682   -0.0000   -0.0000
  0.410   56.6848    0.5945   56.6352    0.6743   56.6436    0.6729   56.6468    0.5789   56.7467    0.6689   56.7554    0.6771   -0.0000   -0.0000
  0.420   56.7332    0.6030   56.6835    0.6831   56.6919    0.6817   56.6953    0.5874   56.7953    0.6779   56.8040    0.6861   -0.0000   -0.0000
  0.430   56.7830    0.6115   56.7331    0.6920   56.7415    0.6905   56.7450    0.5960   56.8451    0.6869   56.8538    0.6951   -0.0000   -0.0000
  0.440   56.8340    0.6200   56.7839    0.7009   56.7924    0.6994   56.7960    0.6046   56.8962    0.6960   56.9049    0.7042   -0.0000   -0.0000
  0.450   56.8863    0.6287   56.8360    0.7099   56.8445    0.7084   56.8482    0.6132   56.9486    0.7052   56.9573    0.7134   -0.0000   -0.0000
  0.460   56.9398    0.6374   56.8894    0.7189   56.8979    0.7175   56.9017    0.6220   57.0023    0.7145   57.0110    0.7227   -0.0000   -0.0000
  0.470   56.9947    0.6461   56.9440    0.7281   56.9526    0.7266   56.9565    0.6308   57.0573    0.7238   57.0660    0.7320   -0.0000   -0.0000
  0.480   57.0508    0.6549   57.0000    0.7373   57.0086    0.7357   57.0126    0.6396   57.1135    0.7332   57.1222    0.7414   -0.0000   -0.0000
  0.490   57.1082    0.6638   57.0572    0.7465   57.0659    0.7450   57.0700    0.6486   57.1711    0.7426   57.1798    0.7508   -0.0000   -0.0000
  0.500   57.1670    0.6728   57.1158    0.7559   57.1244    0.7543   57.1288    0.6576   57.2300    0.7522   57.2387    0.7604   -0.0000   -0.0000
  0.510   57.2270    0.6818   57.1756    0.7653   57.1843    0.7637   57.1888    0.6666   57.2902    0.7618   57.2989    0.7700   -0.0000   -0.0000
  0.520   57.2884    0.6909   57.2368    0.7748   57.2456    0.7732   57.2501    0.6758   57.3517    0.7715   57.3604    0.7797   -0.0000   -0.0000
  0.530   57.3512    0.7000   57.2994    0.7843   57.3081    0.7828   57.3128    0.6850   57.4146    0.7812   57.4233    0.7894   -0.0000   -0.0000
  0.540   57.4152    0.7093   57.3632    0.7940   57.3720    0.7924   57.3769    0.6943   57.4788    0.7911   57.4876    0.7993   -0.0000   -0.0000
  0.550   57.4807    0.7186   57.4284    0.8037   57.4373    0.8021   57.4423    0.7036   57.5444    0.8010   57.5531    0.8092   -0.0000   -0.0000
  0.560   57.5475    0.7280   57.4950    0.8135   57.5039    0.8119   57.5090    0.7131   57.6113    0.8110   57.6201    0.8192   -0.0000   -0.0000
  0.570   57.6156    0.7375   57.5629    0.8234   57.5718    0.8218   57.5771    0.7226   57.6796    0.8211   57.6884    0.8293   -0.0000   -0.0000
  0.580   57.6852    0.7470   57.6323    0.8334   57.6412    0.8318   57.6466    0.7322   57.7493    0.8313   57.7581    0.8395   -0.0000   -0.0000
  0.590   57.7561    0.7567   57.7030    0.8435   57.7119    0.8419   57.7175    0.7419   57.8204    0.8416   57.8292    0.8498   -0.0000   -0.0000
  0.600   57.8284    0.7664   57.7751    0.8537   57.7841    0.8520   57.7898    0.7516   57.8929    0.8520   57.9018    0.8602   -0.0000   -0.0000
  0.610   57.9022    0.7762   57.8486    0.8639   57.8576    0.8623   57.8635    0.7615   57.9669    0.8625   57.9757    0.8706   -0.0000   -0.0000
  0.620   57.9773    0.7861   57.9235    0.8743   57.9326    0.8726   57.9386    0.7714   58.0422    0.8730   58.0511    0.8812   -0.0000   -0.0000
  0.630   58.0539    0.7961   57.9999    0.8847   58.0090    0.8830   58.0152    0.7814   58.1190    0.8837   58.1279    0.8918   -0.0000   -0.0000
  0.640   58.1320    0.8062   58.0777    0.8953   58.0868    0.8936   58.0932    0.7916   58.1972    0.8944   58.2061    0.9026   -0.0000   -0.0000
  0.650   58.2115    0.8164   58.1569    0.9059   58.1661    0.9042   58.1726    0.8018   58.2769    0.9053   58.2858    0.9135   -0.0000   -0.0000
  0.660   58.2925    0.8266   58.2376    0.9166   58.2468    0.9149   58.2536    0.8121   58.3581    0.9163   58.3670    0.9244   -0.0000   -0.0000
  0.670   58.3749    0.8370   58.3198    0.9275   58.3291    0.9258   58.3360    0.8225   58.4408    0.9273   58.4497    0.9355   -0.0000   -0.0000
  0.680   58.4589    0.8475   58.4035    0.9384   58.4128    0.9367   58.4199    0.8330   58.5249    0.9385   58.5338    0.9467   -0.0000   -0.0000
  0.690   58.5443    0.8580   58.4887    0.9495   58.4980    0.9478   58.5053    0.8436   58.6106    0.9498   58.6195    0.9579   -0.0000   -0.0000
  0.700   58.6313    0.8687   58.5754    0.9607   58.5847    0.9589   58.5922    0.8543   58.6978    0.9612   58.7067    0.9693   -0.0000   -0.0000
  0.710   58.7198    0.8795   58.6636    0.9720   58.6730    0.9702   58.6806    0.8651   58.7865    0.9727   58.7954    0.9808   -0.0000   -0.0000
  0.720   58.8098    0.8903   58.7533    0.9833   58.7628    0.9816   58.7706    0.8760   58.8767    0.9843   58.8857    0.9925   -0.0000   -0.0000
  0.730   58.9014    0.9013   58.8447    0.9949   58.8541    0.9931   58.8621    0.8871   58.9686    0.9960   58.9775    1.0042   -0.0000   -0.0000
  0.740   58.9946    0.9124   58.9375    1.0065   58.9470    1.0047   58.9553    0.8982   59.0620    1.0079   59.0709    1.0161   -0.0000   -0.0000
  0.750   59.0893    0.9236   59.0320    1.0182   59.0415    1.0164   59.0499    0.9094   59.1570    1.0199   59.1659    1.0280   -0.0000   -0.0000
  0.760   59.1856    0.9350   59.1280    1.0301   59.1376    1.0283   59.1462    0.9208   59.2536    1.0320   59.2626    1.0402   -0.0000   -0.0000
  0.770   59.2836    0.9464   59.2257    1.0421   59.2353    1.0403   59.2442    0.9323   59.3518    1.0442   59.3608    1.0524   -0.0000   -0.0000
  0.780   59.3832    0.9580   59.3250    1.0542   59.3346    1.0524   59.3437    0.9439   59.4516    1.0566   59.4607    1.0648   -0.0000   -0.0000
  0.790   59.4844    0.9697   59.4259    1.0665   59.4356    1.0646   59.4449    0.9556   59.5531    1.0691   59.5622    1.0773   -0.0000   -0.0000
  0.800   59.5874    0.9815   59.5285    1.0789   59.5382    1.0770   59.5477    0.9675   59.6563    1.0817   59.6654    1.0899   -0.0000   -0.0000
  0.810   59.6919    0.9934   59.6327    1.0914   59.6425    1.0895   59.6522    0.9795   59.7612    1.0945   59.7702    1.1027   -0.0000   -0.0000
  0.820   59.7982    1.0055   59.7387    1.1041   59.7485    1.1022   59.7585    0.9916   59.8677    1.1074   59.8768    1.1156   -0.0000   -0.0000
  0.830   59.9062    1.0177   59.8463    1.1169   59.8562    1.1150   59.8664    1.0038   59.9760    1.1205   59.9851    1.1286   -0.0000   -0.0000
  0.840   60.0159    1.0301   59.9557    1.1298   59.9656    1.1279   59.9760    1.0162   60.0860    1.1337   60.0951    1.1418   -0.0000   -0.0000
  0.850   60.1274    1.0425   60.0668    1.1429   60.0767    1.1410   60.0874    1.0287   60.1978    1.1470   60.2069    1.1552   -0.0000   -0.0000
  0.860   60.2406    1.0552   60.1797    1.1561   60.1897    1.1542   60.2006    1.0414   60.3113    1.1605   60.3204    1.1687   -0.0000   -0.0000
  0.870   60.3556    1.0679   60.2943    1.1695   60.3044    1.1676   60.3155    1.0542   60.4266    1.1742   60.4358    1.1823   -0.0000   -0.0000
  0.880   60.4724    1.0808   60.4108    1.1831   60.4208    1.1811   60.4323    1.0671   60.5437    1.1880   60.5529    1.1962   -0.0000   -0.0000
  0.890   60.5910    1.0939   60.5290    1.1968   60.5391    1.1948   60.5509    1.0802   60.6627    1.2020   60.6719    1.2101   -0.0000   -0.0000
  0.900   60.7115    1.1071   60.6491    1.2107   60.6593    1.2087   60.6713    1.0935   60.7835    1.2161   60.7927    1.2243   -0.0000   -0.0000
  0.910   60.8338    1.1205   60.7711    1.2247   60.7813    1.2227   60.7935    1.1069   60.9061    1.2304   60.9154    1.2386   -0.0000   -0.0000
  0.920   60.9580    1.1340   60.8949    1.2389   60.9052    1.2369   60.9177    1.1205   61.0307    1.2449   61.0399    1.2531   -0.0000   -0.0000
  0.930   61.0842    1.1477   61.0206    1.2533   61.0309    1.2513   61.0437    1.1342   61.1572    1.2596   61.1664    1.2677   -0.0000   -0.0000
  0.940   61.2122    1.1616   61.1483    1.2678   61.1586    1.2658   61.1717    1.1481   61.2856    1.2744   61.2948    1.2826   -0.0000   -0.0000
  0.950   61.3422    1.1756   61.2779    1.2825   61.2882    1.2805   61.3016    1.1622   61.4159    1.2894   61.4252    1.2976   -0.0000   -0.0000
  0.960   61.4741    1.1898   61.4094    1.2975   61.4198    1.2954   61.4335    1.1764   61.5482    1.3046   61.5575    1.3128   -0.0000   -0.0000
  0.970   61.6081    1.2042   61.5429    1.3125   61.5534    1.3105   61.5674    1.1908   61.6826    1.3200   61.6919    1.3282   -0.0000   -0.0000
  0.980   61.7440    1.2187   61.6785    1.3278   61.6890    1.3258   61.7033    1.2054   61.8189    1.3356   61.8282    1.3438   -0.0000   -0.0000
  0.990   61.8820    1.2335   61.8160    1.3433   61.8266    1.3412   61.8412    1.2202   61.9573    1.3514   61.9667    1.3596   -0.0000   -0.0000
  1.000   62.0221    1.2484   61.9556    1.3590   61.9663    1.3569   61.9812    1.2352   62.0977    1.3674   62.1071    1.3755   -0.0000   -0.0000
  1.010   62.1643    1.2635   62.0973    1.3749   62.1080    1.3728   62.1233    1.2503   62.2403    1.3835   62.2497    1.3917   -0.0000   -0.0000
  1.020   62.3085    1.2788   62.2412    1.3909   62.2519    1.3888   62.2675    1.2657   62.3850    1.3999   62.3944    1.4081   -0.0000   -0.0000
  1.030   62.4549    1.2943   62.3871    1.4072   62.3979    1.4051   62.4138    1.2812   62.5318    1.4166   62.5412    1.4247   -0.0000   -0.0000
  1.040   62.6035    1.3101   62.5352    1.4237   62.5460    1.4216   62.5623    1.2970   62.6808    1.4334   62.6903    1.4416   -0.0000   -0.0000
  1.050   62.7543    1.3260   62.6855    1.4405   62.6964    1.4383   62.7130    1.3130   62.8320    1.4504   62.8415    1.4586   -0.0000   -0.0000
  1.060   62.9072    1.3421   62.8380    1.4574   62.8489    1.4553   62.8659    1.3291   62.9854    1.4677   62.9949    1.4759   -0.0000   -0.0000
  1.070   63.0625    1.3585   62.9927    1.4746   63.0037    1.4724   63.0211    1.3455   63.1411    1.4852   63.1506    1.4934   -0.0000   -0.0000
  1.080   63.2200    1.3750   63.1497    1.4920   63.1608    1.4898   63.1785    1.3622   63.2991    1.5030   63.3086    1.5112   -0.0000   -0.0000
  1.090   63.3798    1.3918   63.3090    1.5096   63.3202    1.5075   63.3383    1.3790   63.4594    1.5210   63.4690    1.5292   -0.0000   -0.0000
  1.100   63.5420    1.4089   63.4707    1.5275   63.4819    1.5253   63.5004    1.3961   63.6220    1.5392   63.6316    1.5474   -0.0000   -0.0000
  1.110   63.7065    1.4261   63.6347    1.5456   63.6459    1.5435   63.6648    1.4134   63.7870    1.5577   63.7967    1.5659   -0.0000   -0.0000
  1.120   63.8734    1.4436   63.8011    1.5640   63.8124    1.5618   63.8317    1.4309   63.9545    1.5765   63.9641    1.5847   -0.0000   -0.0000
  1.130   64.0428    1.4614   63.9699    1.5827   63.9813    1.5805   64.0010    1.4487   64.1243    1.5955   64.1340    1.6037   -0.0000   -0.0000
  1.140   64.2146    1.4794   64.1412    1.6016   64.1526    1.5994   64.1728    1.4668   64.2967    1.6148   64.3064    1.6230   -0.0000   -0.0000
  1.150   64.3890    1.4976   64.3150    1.6208   64.3264    1.6185   64.3470    1.4851   64.4715    1.6343   64.4813    1.6425   -0.0000   -0.0000
  1.160   64.5659    1.5162   64.4913    1.6402   64.5028    1.6380   64.5238    1.5036   64.6489    1.6542   64.6587    1.6624   -0.0000   -0.0000
  1.170   64.7453    1.5350   64.6702    1.6600   64.6817    1.6577   64.7032    1.5225   64.8289    1.6743   64.8387    1.6825   -0.0000   -0.0000
  1.180   64.9274    1.5540   64.8516    1.6800   64.8633    1.6777   64.8852    1.5416   65.0115    1.6947   65.0214    1.7029   -0.0000   -0.0000
  1.190   65.1121    1.5734   65.0357    1.7003   65.0474    1.6980   65.0698    1.5610   65.1968    1.7154   65.2067    1.7237   -0.0000   -0.0000
  1.200   65.2995    1.5930   65.2225    1.7209   65.2343    1.7186   65.2571    1.5807   65.3848    1.7365   65.3946    1.7447   -0.0000   -0.0000
  1.210   65.4896    1.6129   65.4120    1.7418   65.4238    1.7396   65.4472    1.6007   65.5755    1.7578   65.5854    1.7660   -0.0000   -0.0000
  1.220   65.6824    1.6331   65.6042    1.7631   65.6161    1.7608   65.6400    1.6209   65.7689    1.7795   65.7789    1.7877   -0.0000   -0.0000
  1.230   65.8781    1.6536   65.7993    1.7846   65.8112    1.7823   65.8356    1.6415   65.9652    1.8015   65.9752    1.8097   -0.0000   -0.0000
  1.240   66.0766    1.6745   65.9971    1.8065   66.0092    1.8042   66.0340    1.6624   66.1643    1.8238   66.1743    1.8320   -0.0000   -0.0000
  1.250   66.2780    1.6956   66.1979    1.8287   66.2100    1.8264   66.2354    1.6836   66.3664    1.8465   66.3764    1.8547   -0.0000   -0.0000
  1.260   66.4824    1.7171   66.4015    1.8513   66.4137    1.8490   66.4396    1.7052   66.5714    1.8695   66.5814    1.8777   -0.0000   -0.0000
  1.270   66.6897    1.7389   66.6082    1.8742   66.6204    1.8719   66.6469    1.7270   66.7793    1.8929   66.7894    1.9011   -0.0000   -0.0000
  1.280   66.9000    1.7611   66.8178    1.8975   66.8301    1.8952   66.8571    1.7493   66.9903    1.9166   67.0004    1.9249   -0.0000   -0.0000
