# Macroscopic dielectric function obtained with the BS equation.
#  RPA L0 with KS energies and KS wavefunctions     LOCAL FIELD EFFECTS INCLUDED
# RESONANT-ONLY calculation
# Coulomb term constructed with full W(G1,G2)
# Scissor operator energy =  0.8000 [eV]
# nstates included in the diagonalization = 96
# npweps  = 113
# npwwfn  = 283
# nbands  = 8
# loband  = 2
# nkibz   = 3
# nkbz    = 8
# Lorentzian broadening =  0.0000 [eV]
# List of q-points for the optical limit:
# q =  0.938821, 0.000000, 0.000000, [Reduced coords] 
# q =  0.000000, 0.938821, 0.000000, [Reduced coords] 
# q =  0.000000, 0.000000, 0.938821, [Reduced coords] 
# q =  0.000000, 0.813043, 0.813043, [Reduced coords] 
# q =  0.813043, 0.000000, 0.813043, [Reduced coords] 
# q =  0.813043, 0.813043, 0.000000, [Reduced coords] 
# omega [eV]    RE(eps(q=1)) IM(eps(q=1) RE(eps(q=2) ) ... DOS   IDOS
  0.000   54.7635    0.1284   54.7528    0.1550   54.7589    0.1532   54.7412    0.1168   54.7995    0.1577   54.8092    0.1608    0.0000    0.0000
  0.010   54.7640    0.1308   54.7533    0.1575   54.7595    0.1557   54.7418    0.1193   54.8000    0.1603   54.8098    0.1634    0.0000    0.0000
  0.020   54.7656    0.1332   54.7549    0.1600   54.7611    0.1582   54.7434    0.1218   54.8016    0.1629   54.8114    0.1661    0.0000    0.0000
  0.030   54.7683    0.1357   54.7576    0.1625   54.7638    0.1607   54.7461    0.1243   54.8043    0.1656   54.8140    0.1687    0.0000    0.0000
  0.040   54.7721    0.1381   54.7613    0.1651   54.7675    0.1632   54.7498    0.1268   54.8080    0.1682   54.8178    0.1713    0.0000    0.0000
  0.050   54.7769    0.1406   54.7661    0.1676   54.7723    0.1658   54.7546    0.1292   54.8129    0.1709   54.8226    0.1740    0.0000    0.0000
  0.060   54.7828    0.1431   54.7720    0.1701   54.7782    0.1683   54.7605    0.1317   54.8187    0.1736   54.8285    0.1767    0.0000    0.0000
  0.070   54.7897    0.1455   54.7789    0.1727   54.7852    0.1709   54.7674    0.1343   54.8257    0.1762   54.8354    0.1794    0.0000    0.0000
  0.080   54.7977    0.1480   54.7869    0.1753   54.7932    0.1735   54.7755    0.1368   54.8337    0.1789   54.8435    0.1820    0.0000    0.0000
  0.090   54.8068    0.1505   54.7960    0.1779   54.8023    0.1761   54.7846    0.1393   54.8428    0.1816   54.8526    0.1847    0.0000    0.0000
  0.100   54.8170    0.1530   54.8061    0.1805   54.8125    0.1787   54.7947    0.1418   54.8530    0.1843   54.8628    0.1875    0.0000    0.0000
  0.110   54.8282    0.1556   54.8174    0.1831   54.8237    0.1813   54.8060    0.1444   54.8642    0.1871   54.8740    0.1902    0.0000    0.0000
  0.120   54.8406    0.1581   54.8297    0.1857   54.8360    0.1839   54.8183    0.1470   54.8766    0.1898   54.8864    0.1929    0.0000    0.0000
  0.130   54.8539    0.1606   54.8430    0.1883   54.8494    0.1865   54.8317    0.1495   54.8900    0.1926   54.8998    0.1957    0.0000    0.0000
  0.140   54.8684    0.1632   54.8575    0.1910   54.8639    0.1892   54.8461    0.1521   54.9045    0.1953   54.9143    0.1984    0.0000    0.0000
  0.150   54.8840    0.1657   54.8730    0.1936   54.8794    0.1918   54.8617    0.1547   54.9200    0.1981   54.9298    0.2012    0.0000    0.0000
  0.160   54.9006    0.1683   54.8896    0.1963   54.8961    0.1945   54.8783    0.1573   54.9367    0.2009   54.9465    0.2040    0.0000    0.0000
  0.170   54.9183    0.1709   54.9073    0.1990   54.9138    0.1972   54.8960    0.1599   54.9544    0.2037   54.9642    0.2068    0.0000    0.0000
  0.180   54.9371    0.1735   54.9261    0.2017   54.9326    0.1999   54.9148    0.1625   54.9732    0.2065   54.9831    0.2096    0.0000    0.0000
  0.190   54.9570    0.1761   54.9460    0.2044   54.9525    0.2026   54.9347    0.1652   54.9932    0.2094   55.0030    0.2124    0.0000    0.0000
  0.200   54.9780    0.1787   54.9669    0.2071   54.9735    0.2053   54.9557    0.1678   55.0142    0.2122   55.0240    0.2153    0.0000    0.0000
  0.210   55.0001    0.1814   54.9890    0.2098   54.9956    0.2081   54.9777    0.1705   55.0363    0.2151   55.0461    0.2182    0.0000    0.0000
  0.220   55.0233    0.1840   55.0121    0.2126   55.0187    0.2108   55.0009    0.1732   55.0595    0.2180   55.0694    0.2210    0.0000    0.0000
  0.230   55.0476    0.1867   55.0364    0.2154   55.0430    0.2136   55.0252    0.1758   55.0838    0.2209   55.0937    0.2239    0.0000    0.0000
  0.240   55.0729    0.1894   55.0617    0.2181   55.0684    0.2164   55.0505    0.1785   55.1092    0.2238   55.1191    0.2268    0.0000    0.0000
  0.250   55.0994    0.1920   55.0882    0.2209   55.0949    0.2192   55.0770    0.1813   55.1357    0.2267   55.1456    0.2298    0.0000    0.0000
  0.260   55.1270    0.1948   55.1158    0.2238   55.1225    0.2220   55.1046    0.1840   55.1634    0.2297   55.1733    0.2327    0.0000    0.0000
  0.270   55.1557    0.1975   55.1444    0.2266   55.1512    0.2248   55.1333    0.1867   55.1921    0.2326   55.2020    0.2357    0.0000    0.0000
  0.280   55.1855    0.2002   55.1742    0.2295   55.1810    0.2277   55.1631    0.1895   55.2220    0.2356   55.2319    0.2387    0.0000    0.0000
  0.290   55.2165    0.2030   55.2052    0.2323   55.2119    0.2306   55.1940    0.1923   55.2530    0.2386   55.2629    0.2417    0.0000    0.0000
  0.300   55.2486    0.2057   55.2372    0.2352   55.2440    0.2335   55.2261    0.1951   55.2851    0.2416   55.2950    0.2447    0.0000    0.0000
  0.310   55.2818    0.2085   55.2704    0.2381   55.2772    0.2364   55.2593    0.1979   55.3183    0.2447   55.3283    0.2477    0.0000    0.0000
  0.320   55.3161    0.2113   55.3047    0.2410   55.3115    0.2393   55.2936    0.2007   55.3527    0.2477   55.3627    0.2508    0.0000    0.0000
  0.330   55.3516    0.2142   55.3401    0.2440   55.3470    0.2423   55.3291    0.2036   55.3882    0.2508   55.3982    0.2539    0.0000    0.0000
  0.340   55.3882    0.2170   55.3767    0.2470   55.3836    0.2452   55.3657    0.2064   55.4249    0.2539   55.4349    0.2570    0.0000    0.0000
  0.350   55.4259    0.2199   55.4144    0.2499   55.4213    0.2482   55.4034    0.2093   55.4627    0.2570   55.4727    0.2601    0.0000    0.0000
  0.360   55.4648    0.2227   55.4533    0.2530   55.4602    0.2512   55.4423    0.2122   55.5017    0.2602   55.5117    0.2632    0.0000    0.0000
  0.370   55.5049    0.2256   55.4933    0.2560   55.5003    0.2542   55.4823    0.2151   55.5418    0.2634   55.5518    0.2664    0.0000    0.0000
  0.380   55.5461    0.2286   55.5345    0.2590   55.5415    0.2573   55.5235    0.2181   55.5831    0.2665   55.5931    0.2696    0.0000    0.0000
  0.390   55.5885    0.2315   55.5768    0.2621   55.5839    0.2604   55.5659    0.2210   55.6256    0.2697   55.6356    0.2728    0.0000    0.0000
  0.400   55.6321    0.2345   55.6204    0.2652   55.6274    0.2635   55.6095    0.2240   55.6692    0.2730   55.6792    0.2760    0.0000    0.0000
  0.410   55.6768    0.2374   55.6651    0.2683   55.6722    0.2666   55.6542    0.2270   55.7140    0.2762   55.7240    0.2793    0.0000    0.0000
  0.420   55.7227    0.2404   55.7109    0.2714   55.7181    0.2697   55.7001    0.2300   55.7600    0.2795   55.7700    0.2825    0.0000    0.0000
  0.430   55.7698    0.2435   55.7580    0.2746   55.7652    0.2729   55.7472    0.2331   55.8072    0.2828   55.8172    0.2858    0.0000    0.0000
  0.440   55.8181    0.2465   55.8063    0.2778   55.8135    0.2761   55.7955    0.2361   55.8556    0.2862   55.8656    0.2892    0.0000    0.0000
  0.450   55.8677    0.2496   55.8558    0.2810   55.8630    0.2793   55.8450    0.2392   55.9052    0.2895   55.9152    0.2925    0.0000    0.0000
  0.460   55.9184    0.2527   55.9064    0.2842   55.9137    0.2825   55.8957    0.2423   55.9560    0.2929   55.9661    0.2959    0.0000    0.0000
  0.470   55.9703    0.2558   55.9583    0.2875   55.9656    0.2858   55.9476    0.2455   56.0080    0.2963   56.0181    0.2993    0.0000    0.0000
  0.480   56.0235    0.2589   56.0114    0.2908   56.0188    0.2891   56.0007    0.2486   56.0612    0.2997   56.0713    0.3028    0.0000    0.0000
  0.490   56.0779    0.2621   56.0658    0.2941   56.0731    0.2924   56.0551    0.2518   56.1157    0.3032   56.1258    0.3062    0.0000    0.0000
  0.500   56.1335    0.2653   56.1214    0.2974   56.1287    0.2957   56.1107    0.2550   56.1714    0.3067   56.1816    0.3097    0.0000    0.0000
  0.510   56.1903    0.2685   56.1782    0.3008   56.1856    0.2991   56.1675    0.2583   56.2284    0.3102   56.2385    0.3132    0.0000    0.0000
  0.520   56.2485    0.2717   56.2363    0.3042   56.2437    0.3025   56.2256    0.2615   56.2866    0.3138   56.2968    0.3168    0.0000    0.0000
  0.530   56.3078    0.2750   56.2956    0.3076   56.3031    0.3059   56.2850    0.2648   56.3461    0.3174   56.3562    0.3204    0.0000    0.0000
  0.540   56.3685    0.2783   56.3562    0.3111   56.3637    0.3094   56.3456    0.2681   56.4068    0.3210   56.4170    0.3240    0.0000    0.0000
  0.550   56.4304    0.2816   56.4181    0.3146   56.4256    0.3129   56.4075    0.2715   56.4688    0.3246   56.4790    0.3276    0.0000    0.0000
  0.560   56.4936    0.2850   56.4812    0.3181   56.4888    0.3164   56.4707    0.2748   56.5321    0.3283   56.5424    0.3313    0.0000    0.0000
  0.570   56.5581    0.2883   56.5457    0.3216   56.5533    0.3199   56.5351    0.2782   56.5967    0.3320   56.6070    0.3350    0.0000    0.0000
  0.580   56.6239    0.2918   56.6114    0.3252   56.6191    0.3235   56.6009    0.2816   56.6627    0.3357   56.6729    0.3387   -0.0000   -0.0000
  0.590   56.6910    0.2952   56.6785    0.3288   56.6862    0.3271   56.6680    0.2851   56.7299    0.3395   56.7401    0.3425   -0.0000   -0.0000
  0.600   56.7594    0.2987   56.7469    0.3325   56.7546    0.3308   56.7364    0.2886   56.7984    0.3433   56.8087    0.3463   -0.0000   -0.0000
  0.610   56.8292    0.3022   56.8166    0.3361   56.8243    0.3344   56.8061    0.2921   56.8683    0.3471   56.8786    0.3501   -0.0000   -0.0000
  0.620   56.9003    0.3057   56.8876    0.3399   56.8954    0.3382   56.8772    0.2956   56.9395    0.3510   56.9498    0.3540   -0.0000   -0.0000
  0.630   56.9728    0.3093   56.9600    0.3436   56.9678    0.3419   56.9496    0.2992   57.0121    0.3549   57.0224    0.3579   -0.0000   -0.0000
  0.640   57.0466    0.3129   57.0338    0.3474   57.0416    0.3457   57.0234    0.3028   57.0860    0.3589   57.0964    0.3619   -0.0000   -0.0000
  0.650   57.1217    0.3165   57.1089    0.3512   57.1168    0.3495   57.0986    0.3065   57.1613    0.3629   57.1717    0.3659   -0.0000   -0.0000
  0.660   57.1983    0.3201   57.1854    0.3550   57.1933    0.3533   57.1751    0.3102   57.2380    0.3669   57.2484    0.3699   -0.0000   -0.0000
  0.670   57.2762    0.3238   57.2633    0.3589   57.2713    0.3572   57.2530    0.3139   57.3161    0.3709   57.3265    0.3739   -0.0000   -0.0000
  0.680   57.3556    0.3276   57.3426    0.3629   57.3506    0.3612   57.3324    0.3176   57.3956    0.3751   57.4060    0.3780   -0.0000   -0.0000
  0.690   57.4364    0.3313   57.4233    0.3668   57.4313    0.3651   57.4131    0.3214   57.4765    0.3792   57.4869    0.3822   -0.0000   -0.0000
  0.700   57.5186    0.3352   57.5054    0.3708   57.5135    0.3691   57.4953    0.3252   57.5588    0.3834   57.5693    0.3864   -0.0000   -0.0000
  0.710   57.6022    0.3390   57.5890    0.3749   57.5971    0.3732   57.5788    0.3291   57.6426    0.3876   57.6531    0.3906   -0.0000   -0.0000
  0.720   57.6873    0.3429   57.6740    0.3790   57.6822    0.3773   57.6639    0.3330   57.7278    0.3919   57.7383    0.3949   -0.0000   -0.0000
  0.730   57.7738    0.3468   57.7605    0.3831   57.7687    0.3814   57.7504    0.3369   57.8145    0.3962   57.8250    0.3992   -0.0000   -0.0000
  0.740   57.8618    0.3508   57.8485    0.3873   57.8567    0.3856   57.8384    0.3409   57.9027    0.4005   57.9132    0.4035   -0.0000   -0.0000
  0.750   57.9513    0.3548   57.9379    0.3915   57.9462    0.3898   57.9279    0.3449   57.9924    0.4049   58.0029    0.4079   -0.0000   -0.0000
  0.760   58.0423    0.3588   58.0288    0.3957   58.0371    0.3940   58.0188    0.3490   58.0835    0.4094   58.0941    0.4124   -0.0000   -0.0000
  0.770   58.1348    0.3629   58.1213    0.4000   58.1296    0.3983   58.1113    0.3531   58.1762    0.4139   58.1868    0.4169   -0.0000   -0.0000
  0.780   58.2289    0.3670   58.2153    0.4044   58.2236    0.4027   58.2053    0.3572   58.2704    0.4184   58.2810    0.4214   -0.0000   -0.0000
  0.790   58.3245    0.3712   58.3108    0.4088   58.3192    0.4071   58.3009    0.3614   58.3662    0.4230   58.3768    0.4260   -0.0000   -0.0000
  0.800   58.4216    0.3754   58.4079    0.4132   58.4163    0.4115   58.3980    0.3656   58.4635    0.4276   58.4741    0.4306   -0.0000   -0.0000
  0.810   58.5203    0.3797   58.5065    0.4177   58.5150    0.4160   58.4967    0.3699   58.5624    0.4323   58.5730    0.4353   -0.0000   -0.0000
  0.820   58.6206    0.3840   58.6068    0.4222   58.6153    0.4205   58.5969    0.3742   58.6629    0.4371   58.6735    0.4401   -0.0000   -0.0000
  0.830   58.7225    0.3883   58.7086    0.4268   58.7172    0.4251   58.6988    0.3786   58.7650    0.4419   58.7756    0.4449   -0.0000   -0.0000
  0.840   58.8260    0.3927   58.8120    0.4315   58.8207    0.4298   58.8023    0.3830   58.8687    0.4467   58.8794    0.4497   -0.0000   -0.0000
  0.850   58.9312    0.3972   58.9171    0.4361   58.9258    0.4345   58.9074    0.3875   58.9740    0.4516   58.9847    0.4546   -0.0000   -0.0000
  0.860   59.0380    0.4017   59.0239    0.4409   59.0326    0.4392   59.0142    0.3920   59.0810    0.4566   59.0917    0.4596   -0.0000   -0.0000
  0.870   59.1465    0.4062   59.1323    0.4457   59.1410    0.4440   59.1226    0.3965   59.1897    0.4616   59.2004    0.4646   -0.0000   -0.0000
  0.880   59.2566    0.4108   59.2423    0.4505   59.2511    0.4489   59.2328    0.4011   59.3001    0.4667   59.3108    0.4696   -0.0000   -0.0000
  0.890   59.3685    0.4155   59.3541    0.4555   59.3630    0.4538   59.3446    0.4058   59.4121    0.4718   59.4229    0.4748   -0.0000   -0.0000
  0.900   59.4821    0.4202   59.4676    0.4604   59.4765    0.4587   59.4581    0.4105   59.5259    0.4770   59.5367    0.4800   -0.0000   -0.0000
  0.910   59.5974    0.4250   59.5829    0.4654   59.5918    0.4638   59.5734    0.4153   59.6415    0.4822   59.6523    0.4852   -0.0000   -0.0000
  0.920   59.7145    0.4298   59.6999    0.4705   59.7088    0.4688   59.6904    0.4201   59.7587    0.4875   59.7696    0.4905   -0.0000   -0.0000
  0.930   59.8333    0.4347   59.8186    0.4757   59.8277    0.4740   59.8092    0.4250   59.8778    0.4929   59.8887    0.4959   -0.0000   -0.0000
  0.940   59.9540    0.4396   59.9392    0.4809   59.9483    0.4792   59.9298    0.4300   59.9987    0.4983   60.0096    0.5013   -0.0000   -0.0000
  0.950   60.0764    0.4446   60.0616    0.4861   60.0707    0.4845   60.0523    0.4350   60.1214    0.5038   60.1323    0.5068   -0.0000   -0.0000
  0.960   60.2007    0.4497   60.1858    0.4915   60.1949    0.4898   60.1765    0.4401   60.2459    0.5094   60.2568    0.5124   -0.0000   -0.0000
  0.970   60.3269    0.4548   60.3118    0.4969   60.3211    0.4952   60.3026    0.4452   60.3723    0.5151   60.3832    0.5181   -0.0000   -0.0000
  0.980   60.4549    0.4600   60.4398    0.5023   60.4490    0.5007   60.4306    0.4504   60.5006    0.5208   60.5115    0.5238   -0.0000   -0.0000
  0.990   60.5848    0.4652   60.5696    0.5079   60.5789    0.5062   60.5605    0.4556   60.6307    0.5266   60.6417    0.5295   -0.0000   -0.0000
  1.000   60.7166    0.4705   60.7014    0.5135   60.7107    0.5118   60.6923    0.4610   60.7628    0.5324   60.7738    0.5354   -0.0000   -0.0000
  1.010   60.8504    0.4759   60.8350    0.5192   60.8445    0.5175   60.8261    0.4664   60.8969    0.5383   60.9079    0.5413   -0.0000   -0.0000
  1.020   60.9862    0.4813   60.9707    0.5249   60.9802    0.5232   60.9618    0.4718   61.0329    0.5443   61.0439    0.5473   -0.0000   -0.0000
  1.030   61.1239    0.4868   61.1084    0.5307   61.1179    0.5290   61.0995    0.4774   61.1709    0.5504   61.1820    0.5534   -0.0000   -0.0000
  1.040   61.2637    0.4924   61.2480    0.5366   61.2576    0.5349   61.2392    0.4830   61.3109    0.5566   61.3220    0.5596   -0.0000   -0.0000
  1.050   61.4055    0.4981   61.3897    0.5426   61.3994    0.5409   61.3809    0.4886   61.4530    0.5628   61.4641    0.5658   -0.0000   -0.0000
  1.060   61.5493    0.5038   61.5335    0.5486   61.5432    0.5470   61.5248    0.4944   61.5971    0.5691   61.6083    0.5721   -0.0000   -0.0000
  1.070   61.6953    0.5096   61.6793    0.5548   61.6891    0.5531   61.6707    0.5002   61.7434    0.5755   61.7545    0.5785   -0.0000   -0.0000
  1.080   61.8433    0.5155   61.8273    0.5610   61.8371    0.5593   61.8187    0.5061   61.8917    0.5820   61.9029    0.5850   -0.0000   -0.0000
  1.090   61.9936    0.5215   61.9774    0.5673   61.9873    0.5656   61.9688    0.5121   62.0422    0.5886   62.0534    0.5916   -0.0000   -0.0000
  1.100   62.1459    0.5275   62.1297    0.5736   62.1396    0.5720   62.1212    0.5181   62.1949    0.5953   62.2061    0.5983   -0.0000   -0.0000
  1.110   62.3005    0.5336   62.2841    0.5801   62.2941    0.5784   62.2757    0.5243   62.3498    0.6020   62.3610    0.6050   -0.0000   -0.0000
  1.120   62.4573    0.5398   62.4408    0.5867   62.4509    0.5850   62.4325    0.5305   62.5069    0.6089   62.5182    0.6119   -0.0000   -0.0000
  1.130   62.6163    0.5461   62.5998    0.5933   62.6099    0.5916   62.5915    0.5368   62.6662    0.6158   62.6776    0.6188   -0.0000   -0.0000
  1.140   62.7777    0.5525   62.7610    0.6000   62.7712    0.5984   62.7528    0.5432   62.8279    0.6228   62.8393    0.6258   -0.0000   -0.0000
  1.150   62.9413    0.5590   62.9245    0.6069   62.9348    0.6052   62.9164    0.5497   62.9919    0.6300   63.0033    0.6330   -0.0000   -0.0000
  1.160   63.1073    0.5655   63.0904    0.6138   63.1007    0.6121   63.0823    0.5563   63.1582    0.6372   63.1696    0.6402   -0.0000   -0.0000
  1.170   63.2757    0.5722   63.2587    0.6208   63.2690    0.6191   63.2507    0.5629   63.3269    0.6445   63.3384    0.6475   -0.0000   -0.0000
  1.180   63.4465    0.5789   63.4294    0.6279   63.4398    0.6263   63.4214    0.5697   63.4980    0.6520   63.5095    0.6550   -0.0000   -0.0000
  1.190   63.6197    0.5858   63.6025    0.6352   63.6129    0.6335   63.5946    0.5765   63.6716    0.6595   63.6832    0.6625   -0.0000   -0.0000
  1.200   63.7955    0.5927   63.7781    0.6425   63.7886    0.6408   63.7703    0.5835   63.8477    0.6672   63.8593    0.6702   -0.0000   -0.0000
  1.210   63.9737    0.5998   63.9562    0.6499   63.9668    0.6482   63.9484    0.5906   64.0263    0.6750   64.0379    0.6780   -0.0000   -0.0000
  1.220   64.1545    0.6069   64.1368    0.6575   64.1475    0.6558   64.1292    0.5977   64.2074    0.6828   64.2191    0.6858   -0.0000   -0.0000
  1.230   64.3378    0.6142   64.3201    0.6651   64.3308    0.6634   64.3125    0.6050   64.3912    0.6908   64.4028    0.6938   -0.0000   -0.0000
  1.240   64.5238    0.6215   64.5059    0.6729   64.5167    0.6712   64.4984    0.6124   64.5775    0.6990   64.5892    0.7020   -0.0000   -0.0000
  1.250   64.7125    0.6290   64.6944    0.6808   64.7053    0.6791   64.6870    0.6199   64.7666    0.7072   64.7783    0.7102   -0.0000   -0.0000
  1.260   64.9038    0.6366   64.8856    0.6888   64.8966    0.6871   64.8783    0.6275   64.9583    0.7156   64.9701    0.7186   -0.0000   -0.0000
  1.270   65.0979    0.6443   65.0796    0.6969   65.0906    0.6952   65.0724    0.6352   65.1528    0.7240   65.1646    0.7271   -0.0000   -0.0000
  1.280   65.2948    0.6521   65.2763    0.7051   65.2874    0.7035   65.2692    0.6430   65.3501    0.7327   65.3619    0.7357   -0.0000   -0.0000
