# Macroscopic dielectric function obtained with the BS equation.
#  RPA L0 with KS energies and KS wavefunctions     LOCAL FIELD EFFECTS INCLUDED
# RESONANT-ONLY calculation
# Coulomb term constructed with full W(G1,G2)
# Scissor operator energy =  0.8000 [eV]
# nstates included in the diagonalization = 96
# npweps  = 113
# npwwfn  = 259
# nbands  = 8
# loband  = 2
# nkibz   = 3
# nkbz    = 8
# Lorentzian broadening =  0.0000 [eV]
# List of q-points for the optical limit:
# q =  0.938821, 0.000000, 0.000000, [Reduced coords] 
# q =  0.000000, 0.938821, 0.000000, [Reduced coords] 
# q =  0.000000, 0.000000, 0.938821, [Reduced coords] 
# q =  0.000000, 0.813043, 0.813043, [Reduced coords] 
# q =  0.813043, 0.000000, 0.813043, [Reduced coords] 
# q =  0.813043, 0.813043, 0.000000, [Reduced coords] 
# omega [eV]    RE(eps(q=1)) IM(eps(q=1) RE(eps(q=2) ) ... DOS   IDOS
  0.000   57.6029    0.4340   57.4872    0.5789   57.5069    0.5741   57.5249    0.3953   57.7107    0.5276   57.7143    0.5351   -0.0000   -0.0000
  0.010   57.6034    0.4528   57.4875    0.5982   57.5072    0.5934   57.5255    0.4143   57.7111    0.5475   57.7147    0.5550   -0.0000   -0.0000
  0.020   57.6052    0.4717   57.4890    0.6176   57.5087    0.6128   57.5274    0.4334   57.7128    0.5675   57.7163    0.5750   -0.0000   -0.0000
  0.030   57.6083    0.4906   57.4918    0.6370   57.5115    0.6322   57.5305    0.4525   57.7157    0.5874   57.7192    0.5950   -0.0000   -0.0000
  0.040   57.6126    0.5095   57.4958    0.6565   57.5155    0.6516   57.5348    0.4716   57.7198    0.6074   57.7234    0.6150   -0.0000   -0.0000
  0.050   57.6181    0.5285   57.5011    0.6760   57.5207    0.6711   57.5404    0.4908   57.7252    0.6275   57.7287    0.6350   -0.0000   -0.0000
  0.060   57.6249    0.5475   57.5075    0.6956   57.5271    0.6907   57.5472    0.5100   57.7318    0.6475   57.7354    0.6552   -0.0000   -0.0000
  0.070   57.6329    0.5665   57.5153    0.7152   57.5348    0.7103   57.5553    0.5292   57.7397    0.6677   57.7433    0.6753   -0.0000   -0.0000
  0.080   57.6421    0.5856   57.5242    0.7348   57.5438    0.7299   57.5646    0.5485   57.7489    0.6879   57.7524    0.6955   -0.0000   -0.0000
  0.090   57.6526    0.6048   57.5344    0.7545   57.5539    0.7496   57.5752    0.5678   57.7592    0.7081   57.7628    0.7158   -0.0000   -0.0000
  0.100   57.6644    0.6239   57.5458    0.7743   57.5653    0.7693   57.5870    0.5872   57.7709    0.7284   57.7744    0.7361   -0.0000   -0.0000
  0.110   57.6774    0.6432   57.5585    0.7941   57.5780    0.7891   57.6000    0.6066   57.7838    0.7487   57.7873    0.7564   -0.0000   -0.0000
  0.120   57.6916    0.6625   57.5724    0.8140   57.5918    0.8090   57.6143    0.6261   57.7979    0.7691   57.8014    0.7768   -0.0000   -0.0000
  0.130   57.7071    0.6818   57.5875    0.8339   57.6070    0.8289   57.6298    0.6456   57.8133    0.7896   57.8168    0.7973   -0.0000   -0.0000
  0.140   57.7239    0.7012   57.6039    0.8539   57.6233    0.8489   57.6466    0.6652   57.8300    0.8101   57.8335    0.8179   -0.0000   -0.0000
  0.150   57.7419    0.7207   57.6216    0.8740   57.6410    0.8690   57.6646    0.6848   57.8479    0.8307   57.8514    0.8385   -0.0000   -0.0000
  0.160   57.7611    0.7402   57.6404    0.8941   57.6598    0.8891   57.6839    0.7045   57.8671    0.8514   57.8706    0.8592   -0.0000   -0.0000
  0.170   57.7816    0.7598   57.6606    0.9144   57.6800    0.9094   57.7045    0.7243   57.8875    0.8721   57.8911    0.8800   -0.0000   -0.0000
  0.180   57.8034    0.7795   57.6820    0.9347   57.7013    0.9297   57.7263    0.7441   57.9092    0.8929   57.9128    0.9008   -0.0000   -0.0000
  0.190   57.8265    0.7992   57.7046    0.9550   57.7240    0.9500   57.7494    0.7640   57.9322    0.9138   57.9358    0.9217   -0.0000   -0.0000
  0.200   57.8508    0.8190   57.7286    0.9755   57.7479    0.9705   57.7737    0.7840   57.9565    0.9348   57.9600    0.9427   -0.0000   -0.0000
  0.210   57.8764    0.8389   57.7537    0.9961   57.7730    0.9910   57.7994    0.8040   57.9820    0.9559   57.9856    0.9638   -0.0000   -0.0000
  0.220   57.9033    0.8589   57.7802    1.0167   57.7995    1.0117   57.8262    0.8242   58.0089    0.9771   58.0124    0.9850   -0.0000   -0.0000
  0.230   57.9314    0.8789   57.8079    1.0375   57.8272    1.0324   57.8544    0.8444   58.0370    0.9983   58.0405    1.0063   -0.0000   -0.0000
  0.240   57.9608    0.8991   57.8369    1.0583   57.8561    1.0532   57.8839    0.8647   58.0664    1.0196   58.0699    1.0276   -0.0000   -0.0000
  0.250   57.9916    0.9193   57.8671    1.0792   57.8864    1.0741   57.9146    0.8851   58.0970    1.0411   58.1006    1.0491   -0.0000   -0.0000
  0.260   58.0236    0.9396   57.8987    1.1002   57.9179    1.0952   57.9466    0.9055   58.1290    1.0626   58.1326    1.0707   -0.0000   -0.0000
  0.270   58.0569    0.9600   57.9315    1.1214   57.9508    1.1163   57.9799    0.9261   58.1623    1.0843   58.1658    1.0923   -0.0000   -0.0000
  0.280   58.0915    0.9806   57.9657    1.1426   57.9849    1.1375   58.0146    0.9468   58.1969    1.1060   58.2004    1.1141   -0.0000   -0.0000
  0.290   58.1274    1.0012   58.0011    1.1640   58.0203    1.1589   58.0505    0.9676   58.2328    1.1279   58.2363    1.1360   -0.0000   -0.0000
  0.300   58.1646    1.0219   58.0378    1.1855   58.0570    1.1803   58.0877    0.9884   58.2700    1.1499   58.2736    1.1580   -0.0000   -0.0000
  0.310   58.2032    1.0427   58.0758    1.2070   58.0950    1.2019   58.1263    1.0094   58.3086    1.1720   58.3121    1.1801   -0.0000   -0.0000
  0.320   58.2430    1.0637   58.1152    1.2288   58.1344    1.2236   58.1661    1.0305   58.3484    1.1942   58.3520    1.2023   -0.0000   -0.0000
  0.330   58.2842    1.0847   58.1559    1.2506   58.1750    1.2454   58.2073    1.0517   58.3896    1.2165   58.3932    1.2247   -0.0000   -0.0000
  0.340   58.3267    1.1059   58.1978    1.2725   58.2170    1.2674   58.2498    1.0730   58.4322    1.2390   58.4357    1.2472   -0.0000   -0.0000
  0.350   58.3706    1.1272   58.2411    1.2946   58.2603    1.2894   58.2937    1.0945   58.4760    1.2616   58.4796    1.2698   -0.0000   -0.0000
  0.360   58.4158    1.1486   58.2858    1.3168   58.3049    1.3116   58.3389    1.1160   58.5213    1.2843   58.5248    1.2926   -0.0000   -0.0000
  0.370   58.4623    1.1702   58.3318    1.3392   58.3509    1.3340   58.3854    1.1377   58.5679    1.3072   58.5714    1.3155   -0.0000   -0.0000
  0.380   58.5102    1.1918   58.3791    1.3617   58.3982    1.3565   58.4333    1.1596   58.6158    1.3302   58.6193    1.3385   -0.0000   -0.0000
  0.390   58.5595    1.2137   58.4278    1.3843   58.4469    1.3791   58.4826    1.1815   58.6651    1.3534   58.6687    1.3617   -0.0000   -0.0000
  0.400   58.6101    1.2356   58.4778    1.4071   58.4970    1.4019   58.5332    1.2036   58.7158    1.3767   58.7193    1.3850   -0.0000   -0.0000
  0.410   58.6622    1.2577   58.5292    1.4301   58.5484    1.4248   58.5852    1.2258   58.7679    1.4001   58.7714    1.4085   -0.0000   -0.0000
  0.420   58.7156    1.2799   58.5820    1.4532   58.6011    1.4479   58.6386    1.2482   58.8213    1.4238   58.8249    1.4321   -0.0000   -0.0000
  0.430   58.7704    1.3023   58.6362    1.4764   58.6553    1.4712   58.6933    1.2707   58.8762    1.4475   58.8797    1.4559   -0.0000   -0.0000
  0.440   58.8265    1.3248   58.6917    1.4999   58.7109    1.4946   58.7495    1.2934   58.9325    1.4715   58.9360    1.4799   -0.0000   -0.0000
  0.450   58.8842    1.3475   58.7487    1.5234   58.7678    1.5181   58.8071    1.3162   58.9902    1.4956   58.9937    1.5040   -0.0000   -0.0000
  0.460   58.9432    1.3704   58.8071    1.5472   58.8262    1.5419   58.8661    1.3392   59.0493    1.5199   59.0528    1.5283   -0.0000   -0.0000
  0.470   59.0036    1.3934   58.8668    1.5711   58.8859    1.5658   58.9265    1.3623   59.1098    1.5443   59.1133    1.5528   -0.0000   -0.0000
  0.480   59.0655    1.4166   58.9280    1.5952   58.9471    1.5899   58.9884    1.3856   59.1718    1.5689   59.1753    1.5774   -0.0000   -0.0000
  0.490   59.1288    1.4399   58.9907    1.6195   59.0098    1.6142   59.0517    1.4091   59.2352    1.5938   59.2387    1.6023   -0.0000   -0.0000
  0.500   59.1936    1.4634   59.0547    1.6440   59.0738    1.6386   59.1164    1.4328   59.3001    1.6188   59.3036    1.6273   -0.0000   -0.0000
  0.510   59.2598    1.4871   59.1202    1.6687   59.1394    1.6633   59.1826    1.4566   59.3664    1.6440   59.3700    1.6525   -0.0000   -0.0000
  0.520   59.3276    1.5110   59.1872    1.6935   59.2063    1.6881   59.2503    1.4806   59.4342    1.6694   59.4378    1.6780   -0.0000   -0.0000
  0.530   59.3967    1.5351   59.2557    1.7186   59.2748    1.7132   59.3194    1.5048   59.5036    1.6950   59.5071    1.7036   -0.0000   -0.0000
  0.540   59.4674    1.5594   59.3256    1.7438   59.3447    1.7384   59.3901    1.5292   59.5744    1.7208   59.5779    1.7294   -0.0000   -0.0000
  0.550   59.5396    1.5838   59.3970    1.7693   59.4161    1.7639   59.4622    1.5538   59.6467    1.7468   59.6503    1.7554   -0.0000   -0.0000
  0.560   59.6133    1.6085   59.4699    1.7950   59.4890    1.7896   59.5359    1.5786   59.7205    1.7730   59.7241    1.7817   -0.0000   -0.0000
  0.570   59.6885    1.6333   59.5443    1.8209   59.5635    1.8154   59.6110    1.6036   59.7959    1.7995   59.7995    1.8082   -0.0000   -0.0000
  0.580   59.7653    1.6584   59.6203    1.8470   59.6394    1.8416   59.6878    1.6288   59.8728    1.8261   59.8764    1.8349   -0.0000   -0.0000
  0.590   59.8436    1.6837   59.6978    1.8734   59.7169    1.8679   59.7660    1.6542   59.9513    1.8530   59.9548    1.8618   -0.0000   -0.0000
  0.600   59.9234    1.7092   59.7768    1.9000   59.7959    1.8945   59.8458    1.6798   60.0313    1.8802   60.0349    1.8890   -0.0000   -0.0000
  0.610   60.0049    1.7349   59.8574    1.9268   59.8765    1.9213   59.9272    1.7057   60.1129    1.9076   60.1165    1.9164   -0.0000   -0.0000
  0.620   60.0879    1.7609   59.9395    1.9538   59.9587    1.9483   60.0101    1.7318   60.1961    1.9352   60.1997    1.9440   -0.0000   -0.0000
  0.630   60.1725    1.7871   60.0232    1.9811   60.0424    1.9756   60.0947    1.7581   60.2809    1.9631   60.2845    1.9719   -0.0000   -0.0000
  0.640   60.2587    1.8135   60.1086    2.0087   60.1277    2.0031   60.1809    1.7846   60.3673    1.9912   60.3709    2.0001   -0.0000   -0.0000
  0.650   60.3466    1.8402   60.1955    2.0365   60.2147    2.0309   60.2686    1.8114   60.4553    2.0196   60.4589    2.0285   -0.0000   -0.0000
  0.660   60.4360    1.8671   60.2840    2.0646   60.3032    2.0590   60.3580    1.8385   60.5450    2.0483   60.5486    2.0572   -0.0000   -0.0000
  0.670   60.5272    1.8943   60.3742    2.0929   60.3934    2.0873   60.4491    1.8658   60.6363    2.0772   60.6399    2.0861   -0.0000   -0.0000
  0.680   60.6199    1.9217   60.4661    2.1216   60.4853    2.1160   60.5418    1.8933   60.7293    2.1064   60.7329    2.1154   -0.0000   -0.0000
  0.690   60.7144    1.9495   60.5596    2.1505   60.5788    2.1448   60.6362    1.9212   60.8240    2.1359   60.8276    2.1449   -0.0000   -0.0000
  0.700   60.8106    1.9774   60.6547    2.1796   60.6740    2.1740   60.7323    1.9493   60.9204    2.1657   60.9240    2.1747   -0.0000   -0.0000
  0.710   60.9084    2.0057   60.7516    2.2091   60.7709    2.2035   60.8301    1.9776   61.0185    2.1958   61.0221    2.2048   -0.0000   -0.0000
  0.720   61.0080    2.0342   60.8502    2.2389   60.8694    2.2332   60.9296    2.0063   61.1183    2.2262   61.1219    2.2352   -0.0000   -0.0000
  0.730   61.1093    2.0630   60.9505    2.2690   60.9697    2.2633   61.0309    2.0352   61.2199    2.2569   61.2235    2.2659   -0.0000   -0.0000
  0.740   61.2124    2.0922   61.0525    2.2994   61.0718    2.2937   61.1339    2.0645   61.3232    2.2879   61.3268    2.2970   -0.0000   -0.0000
  0.750   61.3173    2.1216   61.1563    2.3301   61.1756    2.3244   61.2387    2.0940   61.4283    2.3192   61.4320    2.3283   -0.0000   -0.0000
  0.760   61.4239    2.1513   61.2619    2.3611   61.2812    2.3554   61.3452    2.1239   61.5352    2.3509   61.5389    2.3600   -0.0000   -0.0000
  0.770   61.5324    2.1814   61.3692    2.3925   61.3885    2.3867   61.4536    2.1540   61.6439    2.3829   61.6476    2.3920   -0.0000   -0.0000
  0.780   61.6427    2.2117   61.4784    2.4242   61.4977    2.4184   61.5638    2.1845   61.7545    2.4152   61.7582    2.4244   -0.0000   -0.0000
  0.790   61.7548    2.2424   61.5894    2.4562   61.6087    2.4505   61.6758    2.2153   61.8669    2.4479   61.8706    2.4571   -0.0000   -0.0000
  0.800   61.8688    2.2734   61.7022    2.4886   61.7216    2.4828   61.7897    2.2465   61.9812    2.4810   61.9849    2.4902   -0.0000   -0.0000
  0.810   61.9846    2.3048   61.8169    2.5214   61.8363    2.5156   61.9055    2.2780   62.0973    2.5144   62.1010    2.5236   -0.0000   -0.0000
  0.820   62.1024    2.3365   61.9334    2.5545   61.9529    2.5487   62.0232    2.3098   62.2154    2.5482   62.2191    2.5575   -0.0000   -0.0000
  0.830   62.2221    2.3686   62.0519    2.5880   62.0714    2.5822   62.1428    2.3420   62.3354    2.5824   62.3391    2.5917   -0.0000   -0.0000
  0.840   62.3437    2.4010   62.1723    2.6219   62.1918    2.6160   62.2643    2.3746   62.4573    2.6169   62.4611    2.6263   -0.0000   -0.0000
  0.850   62.4673    2.4339   62.2946    2.6561   62.3141    2.6503   62.3878    2.4075   62.5813    2.6519   62.5850    2.6612   -0.0000   -0.0000
  0.860   62.5929    2.4671   62.4189    2.6908   62.4384    2.6849   62.5133    2.4408   62.7072    2.6873   62.7109    2.6966   -0.0000   -0.0000
  0.870   62.7204    2.5006   62.5452    2.7259   62.5647    2.7200   62.6407    2.4745   62.8351    2.7231   62.8388    2.7324   -0.0000   -0.0000
  0.880   62.8500    2.5346   62.6735    2.7613   62.6930    2.7554   62.7702    2.5086   62.9650    2.7593   62.9688    2.7687   -0.0000   -0.0000
  0.890   62.9817    2.5690   62.8038    2.7972   62.8234    2.7913   62.9018    2.5431   63.0970    2.7959   63.1008    2.8053   -0.0000   -0.0000
  0.900   63.1154    2.6038   62.9362    2.8336   62.9558    2.8277   63.0354    2.5780   63.2311    2.8330   63.2349    2.8425   -0.0000   -0.0000
  0.910   63.2512    2.6390   63.0706    2.8704   63.0902    2.8644   63.1711    2.6134   63.3673    2.8705   63.3711    2.8800   -0.0000   -0.0000
  0.920   63.3892    2.6747   63.2071    2.9076   63.2268    2.9017   63.3089    2.6492   63.5056    2.9085   63.5094    2.9180   -0.0000   -0.0000
  0.930   63.5292    2.7108   63.3458    2.9453   63.3654    2.9393   63.4489    2.6854   63.6461    2.9470   63.6499    2.9565   -0.0000   -0.0000
  0.940   63.6715    2.7473   63.4866    2.9835   63.5063    2.9775   63.5910    2.7221   63.7887    2.9860   63.7925    2.9955   -0.0000   -0.0000
  0.950   63.8159    2.7843   63.6295    3.0221   63.6493    3.0161   63.7354    2.7592   63.9335    3.0254   63.9374    3.0350   -0.0000   -0.0000
  0.960   63.9626    2.8218   63.7747    3.0613   63.7944    3.0553   63.8819    2.7968   64.0806    3.0654   64.0844    3.0749   -0.0000   -0.0000
  0.970   64.1115    2.8597   63.9221    3.1009   63.9419    3.0949   64.0307    2.8349   64.2299    3.1058   64.2338    3.1154   -0.0000   -0.0000
  0.980   64.2627    2.8982   64.0717    3.1411   64.0915    3.1350   64.1818    2.8735   64.3816    3.1468   64.3854    3.1564   -0.0000   -0.0000
  0.990   64.4162    2.9371   64.2237    3.1817   64.2435    3.1757   64.3352    2.9125   64.5355    3.1883   64.5393    3.1980   -0.0000   -0.0000
  1.000   64.5720    2.9766   64.3779    3.2230   64.3977    3.2169   64.4909    2.9521   64.6917    3.2304   64.6956    3.2400   -0.0000   -0.0000
  1.010   64.7302    3.0166   64.5344    3.2647   64.5543    3.2586   64.6489    2.9922   64.8504    3.2730   64.8543    3.2827   -0.0000   -0.0000
  1.020   64.8908    3.0571   64.6934    3.3070   64.7133    3.3009   64.8094    3.0329   65.0114    3.3162   65.0153    3.3259   -0.0000   -0.0000
  1.030   65.0538    3.0982   64.8547    3.3499   64.8746    3.3438   64.9723    3.0741   65.1749    3.3600   65.1788    3.3697   -0.0000   -0.0000
  1.040   65.2192    3.1398   65.0184    3.3934   65.0384    3.3873   65.1376    3.1159   65.3408    3.4044   65.3448    3.4141   -0.0000   -0.0000
  1.050   65.3872    3.1820   65.1846    3.4375   65.2046    3.4313   65.3055    3.1582   65.5093    3.4494   65.5132    3.4591   -0.0000   -0.0000
  1.060   65.5577    3.2248   65.3533    3.4821   65.3734    3.4760   65.4758    3.2011   65.6802    3.4950   65.6842    3.5048   -0.0000   -0.0000
  1.070   65.7307    3.2681   65.5246    3.5274   65.5446    3.5213   65.6487    3.2447   65.8538    3.5412   65.8577    3.5510   -0.0000   -0.0000
  1.080   65.9063    3.3121   65.6983    3.5734   65.7184    3.5672   65.8242    3.2888   66.0299    3.5881   66.0339    3.5980   -0.0000   -0.0000
  1.090   66.0845    3.3568   65.8747    3.6200   65.8948    3.6138   66.0023    3.3336   66.2086    3.6357   66.2127    3.6456   -0.0000   -0.0000
  1.100   66.2654    3.4020   66.0537    3.6672   66.0739    3.6610   66.1830    3.3790   66.3901    3.6840   66.3941    3.6938   -0.0000   -0.0000
  1.110   66.4490    3.4479   66.2354    3.7152   66.2556    3.7089   66.3665    3.4251   66.5742    3.7329   66.5782    3.7428   -0.0000   -0.0000
  1.120   66.6353    3.4945   66.4197    3.7638   66.4400    3.7575   66.5527    3.4718   66.7611    3.7826   66.7651    3.7925   -0.0000   -0.0000
  1.130   66.8244    3.5418   66.6068    3.8131   66.6271    3.8069   66.7417    3.5192   66.9507    3.8330   66.9548    3.8429   -0.0000   -0.0000
  1.140   67.0163    3.5898   66.7967    3.8632   66.8170    3.8569   66.9334    3.5673   67.1432    3.8841   67.1473    3.8941   -0.0000   -0.0000
  1.150   67.2111    3.6384   66.9894    3.9140   67.0097    3.9077   67.1281    3.6162   67.3385    3.9360   67.3427    3.9460   -0.0000   -0.0000
  1.160   67.4087    3.6879   67.1849    3.9656   67.2053    3.9593   67.3256    3.6658   67.5368    3.9887   67.5409    3.9987   -0.0000   -0.0000
  1.170   67.6093    3.7380   67.3834    4.0179   67.4038    4.0116   67.5260    3.7161   67.7380    4.0422   67.7421    4.0522   -0.0000   -0.0000
  1.180   67.8129    3.7890   67.5848    4.0711   67.6052    4.0647   67.7295    3.7672   67.9421    4.0965   67.9463    4.1065   -0.0000   -0.0000
  1.190   68.0195    3.8407   67.7891    4.1251   67.8096    4.1187   67.9359    3.8191   68.1493    4.1516   68.1536    4.1617   -0.0000   -0.0000
  1.200   68.2291    3.8932   67.9965    4.1799   68.0171    4.1735   68.1454    3.8718   68.3596    4.2076   68.3639    4.2177   -0.0000   -0.0000
  1.210   68.4419    3.9465   68.2070    4.2355   68.2276    4.2291   68.3581    3.9253   68.5730    4.2645   68.5773    4.2746   -0.0000   -0.0000
  1.220   68.6578    4.0007   68.4206    4.2920   68.4412    4.2856   68.5739    3.9797   68.7896    4.3223   68.7939    4.3324   -0.0000   -0.0000
  1.230   68.8770    4.0558   68.6374    4.3495   68.6580    4.3430   68.7929    4.0349   69.0094    4.3810   69.0138    4.3911   -0.0000   -0.0000
  1.240   69.0994    4.1117   68.8573    4.4078   68.8780    4.4014   69.0151    4.0911   69.2325    4.4406   69.2369    4.4507   -0.0000   -0.0000
  1.250   69.3251    4.1686   69.0806    4.4671   69.1013    4.4606   69.2407    4.1481   69.4589    4.5012   69.4633    4.5113   -0.0000   -0.0000
  1.260   69.5541    4.2263   69.3071    4.5273   69.3279    4.5208   69.4696    4.2061   69.6887    4.5628   69.6931    4.5729   -0.0000   -0.0000
  1.270   69.7866    4.2851   69.5371    4.5885   69.5579    4.5821   69.7020    4.2650   69.9219    4.6254   69.9263    4.6356   -0.0000   -0.0000
  1.280   70.0226    4.3447   69.7704    4.6508   69.7913    4.6443   69.9378    4.3249   70.1585    4.6890   70.1630    4.6992   -0.0001   -0.0000
