# Macroscopic dielectric function obtained with the BS equation.
#  RPA L0 with KS energies and KS wavefunctions     LOCAL FIELD EFFECTS INCLUDED
# RESONANT-ONLY calculation
# Coulomb term constructed with full W(G1,G2)
# Scissor operator energy =  0.8000 [eV]
# nstates included in the diagonalization = 96
# npweps  = 113
# npwwfn  = 259
# nbands  = 8
# loband  = 2
# nkibz   = 3
# nkbz    = 8
# Lorentzian broadening =  0.0000 [eV]
# List of q-points for the optical limit:
# q =  0.938821, 0.000000, 0.000000, [Reduced coords] 
# q =  0.000000, 0.938821, 0.000000, [Reduced coords] 
# q =  0.000000, 0.000000, 0.938821, [Reduced coords] 
# q =  0.000000, 0.813043, 0.813043, [Reduced coords] 
# q =  0.813043, 0.000000, 0.813043, [Reduced coords] 
# q =  0.813043, 0.813043, 0.000000, [Reduced coords] 
# omega [eV]    RE(eps(q=1)) IM(eps(q=1) RE(eps(q=2) ) ... DOS   IDOS
  0.000   54.7899    0.1283   54.7792    0.1550   54.7853    0.1531   54.7676    0.1168   54.8259    0.1577   54.8357    0.1608    0.0000    0.0000
  0.010   54.7905    0.1308   54.7797    0.1575   54.7859    0.1557   54.7681    0.1192   54.8265    0.1603   54.8362    0.1634    0.0000    0.0000
  0.020   54.7921    0.1332   54.7813    0.1600   54.7875    0.1582   54.7697    0.1217   54.8281    0.1629   54.8378    0.1660    0.0000    0.0000
  0.030   54.7947    0.1356   54.7839    0.1625   54.7902    0.1607   54.7724    0.1242   54.8307    0.1656   54.8405    0.1687    0.0000    0.0000
  0.040   54.7985    0.1381   54.7877    0.1650   54.7939    0.1632   54.7761    0.1267   54.8345    0.1682   54.8443    0.1713    0.0000    0.0000
  0.050   54.8033    0.1406   54.7925    0.1676   54.7987    0.1658   54.7810    0.1292   54.8393    0.1709   54.8491    0.1740    0.0000    0.0000
  0.060   54.8092    0.1430   54.7983    0.1701   54.8046    0.1683   54.7868    0.1317   54.8452    0.1735   54.8550    0.1767    0.0000    0.0000
  0.070   54.8161    0.1455   54.8053    0.1727   54.8116    0.1709   54.7938    0.1342   54.8521    0.1762   54.8619    0.1793    0.0000    0.0000
  0.080   54.8242    0.1480   54.8133    0.1753   54.8196    0.1735   54.8018    0.1367   54.8602    0.1789   54.8700    0.1820    0.0000    0.0000
  0.090   54.8333    0.1505   54.8224    0.1779   54.8287    0.1761   54.8109    0.1393   54.8693    0.1816   54.8791    0.1847    0.0000    0.0000
  0.100   54.8434    0.1530   54.8325    0.1805   54.8389    0.1787   54.8211    0.1418   54.8794    0.1843   54.8893    0.1875    0.0000    0.0000
  0.110   54.8547    0.1555   54.8437    0.1831   54.8501    0.1813   54.8323    0.1443   54.8907    0.1871   54.9005    0.1902    0.0000    0.0000
  0.120   54.8670    0.1581   54.8560    0.1857   54.8625    0.1839   54.8446    0.1469   54.9030    0.1898   54.9129    0.1929    0.0000    0.0000
  0.130   54.8804    0.1606   54.8694    0.1883   54.8759    0.1865   54.8580    0.1495   54.9164    0.1926   54.9263    0.1957    0.0000    0.0000
  0.140   54.8949    0.1631   54.8839    0.1910   54.8903    0.1892   54.8725    0.1520   54.9309    0.1953   54.9408    0.1984    0.0000    0.0000
  0.150   54.9104    0.1657   54.8994    0.1936   54.9059    0.1918   54.8880    0.1546   54.9465    0.1981   54.9564    0.2012    0.0000    0.0000
  0.160   54.9271    0.1683   54.9160    0.1963   54.9225    0.1945   54.9047    0.1572   54.9632    0.2009   54.9730    0.2040    0.0000    0.0000
  0.170   54.9448    0.1709   54.9337    0.1990   54.9403    0.1972   54.9224    0.1599   54.9809    0.2037   54.9908    0.2068    0.0000    0.0000
  0.180   54.9636    0.1735   54.9525    0.2017   54.9591    0.1999   54.9412    0.1625   54.9997    0.2065   55.0096    0.2096    0.0000    0.0000
  0.190   54.9835    0.1761   54.9724    0.2044   54.9790    0.2026   54.9611    0.1651   55.0197    0.2094   55.0296    0.2125    0.0000    0.0000
  0.200   55.0045    0.1787   54.9934    0.2071   55.0000    0.2053   54.9821    0.1678   55.0407    0.2122   55.0506    0.2153    0.0000    0.0000
  0.210   55.0266    0.1813   55.0154    0.2098   55.0221    0.2081   55.0042    0.1704   55.0628    0.2151   55.0727    0.2182    0.0000    0.0000
  0.220   55.0498    0.1840   55.0386    0.2126   55.0453    0.2108   55.0273    0.1731   55.0860    0.2180   55.0959    0.2210    0.0000    0.0000
  0.230   55.0741    0.1867   55.0628    0.2154   55.0695    0.2136   55.0516    0.1758   55.1103    0.2209   55.1203    0.2239    0.0000    0.0000
  0.240   55.0995    0.1893   55.0882    0.2182   55.0949    0.2164   55.0770    0.1785   55.1358    0.2238   55.1457    0.2269    0.0000    0.0000
  0.250   55.1260    0.1920   55.1147    0.2210   55.1214    0.2192   55.1035    0.1812   55.1623    0.2267   55.1722    0.2298    0.0000    0.0000
  0.260   55.1536    0.1947   55.1423    0.2238   55.1490    0.2220   55.1311    0.1840   55.1900    0.2297   55.1999    0.2327    0.0000    0.0000
  0.270   55.1823    0.1975   55.1710    0.2266   55.1777    0.2249   55.1598    0.1867   55.2187    0.2326   55.2287    0.2357    0.0000    0.0000
  0.280   55.2121    0.2002   55.2008    0.2295   55.2076    0.2277   55.1896    0.1895   55.2486    0.2356   55.2586    0.2387    0.0000    0.0000
  0.290   55.2431    0.2030   55.2317    0.2323   55.2385    0.2306   55.2206    0.1923   55.2796    0.2386   55.2896    0.2417    0.0000    0.0000
  0.300   55.2752    0.2057   55.2637    0.2352   55.2706    0.2335   55.2526    0.1950   55.3117    0.2417   55.3217    0.2447    0.0000    0.0000
  0.310   55.3084    0.2085   55.2969    0.2381   55.3038    0.2364   55.2858    0.1979   55.3450    0.2447   55.3550    0.2477    0.0000    0.0000
  0.320   55.3427    0.2113   55.3312    0.2411   55.3382    0.2393   55.3202    0.2007   55.3794    0.2478   55.3894    0.2508    0.0000    0.0000
  0.330   55.3782    0.2142   55.3667    0.2440   55.3736    0.2423   55.3556    0.2035   55.4149    0.2508   55.4249    0.2539    0.0000    0.0000
  0.340   55.4148    0.2170   55.4033    0.2470   55.4102    0.2452   55.3922    0.2064   55.4516    0.2539   55.4616    0.2570    0.0000    0.0000
  0.350   55.4526    0.2199   55.4410    0.2500   55.4480    0.2482   55.4300    0.2093   55.4894    0.2571   55.4994    0.2601    0.0000    0.0000
  0.360   55.4915    0.2227   55.4799    0.2530   55.4869    0.2512   55.4689    0.2122   55.5284    0.2602   55.5384    0.2632    0.0000    0.0000
  0.370   55.5316    0.2256   55.5199    0.2560   55.5270    0.2543   55.5090    0.2151   55.5685    0.2634   55.5786    0.2664    0.0000    0.0000
  0.380   55.5729    0.2286   55.5611    0.2591   55.5682    0.2573   55.5502    0.2181   55.6098    0.2666   55.6199    0.2696    0.0000    0.0000
  0.390   55.6153    0.2315   55.6035    0.2621   55.6106    0.2604   55.5926    0.2210   55.6523    0.2698   55.6624    0.2728    0.0000    0.0000
  0.400   55.6588    0.2345   55.6471    0.2652   55.6542    0.2635   55.6361    0.2240   55.6960    0.2730   55.7060    0.2760    0.0000    0.0000
  0.410   55.7036    0.2374   55.6918    0.2683   55.6989    0.2666   55.6809    0.2270   55.7408    0.2763   55.7509    0.2793    0.0000    0.0000
  0.420   55.7495    0.2404   55.7377    0.2715   55.7449    0.2698   55.7268    0.2300   55.7868    0.2796   55.7969    0.2826    0.0000    0.0000
  0.430   55.7967    0.2435   55.7848    0.2746   55.7920    0.2729   55.7739    0.2331   55.8340    0.2829   55.8441    0.2859    0.0000    0.0000
  0.440   55.8450    0.2465   55.8331    0.2778   55.8403    0.2761   55.8222    0.2361   55.8824    0.2862   55.8925    0.2892    0.0000    0.0000
  0.450   55.8945    0.2496   55.8826    0.2810   55.8898    0.2793   55.8717    0.2392   55.9320    0.2896   55.9422    0.2926    0.0000    0.0000
  0.460   55.9453    0.2527   55.9332    0.2843   55.9406    0.2826   55.9224    0.2423   55.9828    0.2929   55.9930    0.2959    0.0000    0.0000
  0.470   55.9972    0.2558   55.9852    0.2875   55.9925    0.2858   55.9744    0.2455   56.0349    0.2963   56.0450    0.2994    0.0000    0.0000
  0.480   56.0504    0.2589   56.0383    0.2908   56.0457    0.2891   56.0275    0.2486   56.0881    0.2998   56.0983    0.3028    0.0000    0.0000
  0.490   56.1048    0.2621   56.0927    0.2941   56.1001    0.2924   56.0819    0.2518   56.1426    0.3032   56.1528    0.3063    0.0000    0.0000
  0.500   56.1605    0.2653   56.1483    0.2975   56.1557    0.2958   56.1375    0.2550   56.1984    0.3067   56.2086    0.3098    0.0000    0.0000
  0.510   56.2173    0.2685   56.2051    0.3009   56.2126    0.2991   56.1944    0.2582   56.2554    0.3103   56.2656    0.3133    0.0000    0.0000
  0.520   56.2755    0.2717   56.2632    0.3043   56.2707    0.3025   56.2525    0.2615   56.3136    0.3138   56.3238    0.3168    0.0000    0.0000
  0.530   56.3349    0.2750   56.3226    0.3077   56.3301    0.3060   56.3119    0.2648   56.3731    0.3174   56.3833    0.3204    0.0000    0.0000
  0.540   56.3956    0.2783   56.3832    0.3111   56.3908    0.3094   56.3726    0.2681   56.4339    0.3210   56.4441    0.3240    0.0000    0.0000
  0.550   56.4575    0.2816   56.4451    0.3146   56.4527    0.3129   56.4345    0.2714   56.4959    0.3247   56.5062    0.3277    0.0000    0.0000
  0.560   56.5207    0.2850   56.5083    0.3181   56.5159    0.3164   56.4977    0.2748   56.5593    0.3283   56.5695    0.3313    0.0000    0.0000
  0.570   56.5852    0.2884   56.5727    0.3217   56.5804    0.3200   56.5622    0.2782   56.6239    0.3320   56.6342    0.3350    0.0000    0.0000
  0.580   56.6511    0.2918   56.6385    0.3253   56.6462    0.3236   56.6280    0.2816   56.6898    0.3358   56.7001    0.3388    0.0000    0.0000
  0.590   56.7182    0.2952   56.7056    0.3289   56.7133    0.3272   56.6951    0.2851   56.7571    0.3395   56.7674    0.3425    0.0000    0.0000
  0.600   56.7867    0.2987   56.7740    0.3325   56.7818    0.3308   56.7635    0.2886   56.8256    0.3434   56.8360    0.3464    0.0000    0.0000
  0.610   56.8565    0.3022   56.8438    0.3362   56.8516    0.3345   56.8333    0.2921   56.8956    0.3472   56.9059    0.3502    0.0000    0.0000
  0.620   56.9276    0.3057   56.9148    0.3399   56.9227    0.3382   56.9044    0.2956   56.9668    0.3511   56.9772    0.3541    0.0000    0.0000
  0.630   57.0001    0.3093   56.9873    0.3437   56.9951    0.3420   56.9768    0.2992   57.0394    0.3550   57.0498    0.3580    0.0000    0.0000
  0.640   57.0739    0.3129   57.0610    0.3474   57.0689    0.3457   57.0507    0.3028   57.1134    0.3589   57.1238    0.3619    0.0000    0.0000
  0.650   57.1491    0.3165   57.1362    0.3513   57.1441    0.3496   57.1258    0.3065   57.1887    0.3629   57.1991    0.3659    0.0000    0.0000
  0.660   57.2257    0.3202   57.2127    0.3551   57.2207    0.3534   57.2024    0.3102   57.2654    0.3669   57.2758    0.3699    0.0000    0.0000
  0.670   57.3037    0.3239   57.2907    0.3590   57.2987    0.3573   57.2803    0.3139   57.3435    0.3710   57.3540    0.3740    0.0000    0.0000
  0.680   57.3831    0.3276   57.3700    0.3629   57.3780    0.3612   57.3597    0.3176   57.4231    0.3751   57.4335    0.3781    0.0000    0.0000
  0.690   57.4638    0.3314   57.4507    0.3669   57.4588    0.3652   57.4405    0.3214   57.5040    0.3793   57.5145    0.3823    0.0000    0.0000
  0.700   57.5461    0.3352   57.5329    0.3709   57.5410    0.3692   57.5227    0.3252   57.5864    0.3834   57.5968    0.3864    0.0000    0.0000
  0.710   57.6297    0.3390   57.6165    0.3749   57.6247    0.3732   57.6063    0.3291   57.6702    0.3877   57.6807    0.3907    0.0000    0.0000
  0.720   57.7148    0.3429   57.7015    0.3790   57.7097    0.3773   57.6914    0.3330   57.7554    0.3919   57.7659    0.3949    0.0000    0.0000
  0.730   57.8014    0.3468   57.7880    0.3832   57.7963    0.3815   57.7779    0.3369   57.8422    0.3963   57.8527    0.3992    0.0000    0.0000
  0.740   57.8895    0.3508   57.8760    0.3873   57.8843    0.3856   57.8659    0.3409   57.9304    0.4006   57.9409    0.4036    0.0000    0.0000
  0.750   57.9790    0.3548   57.9655    0.3915   57.9738    0.3898   57.9554    0.3449   58.0201    0.4050   58.0306    0.4080    0.0000    0.0000
  0.760   58.0700    0.3588   58.0565    0.3958   58.0648    0.3941   58.0465    0.3490   58.1113    0.4095   58.1218    0.4124    0.0000    0.0000
  0.770   58.1626    0.3629   58.1490    0.4001   58.1574    0.3984   58.1390    0.3531   58.2040    0.4140   58.2146    0.4169    0.0000    0.0000
  0.780   58.2567    0.3671   58.2430    0.4044   58.2514    0.4028   58.2330    0.3572   58.2982    0.4185   58.3088    0.4215    0.0000    0.0000
  0.790   58.3523    0.3712   58.3385    0.4088   58.3470    0.4072   58.3286    0.3614   58.3940    0.4231   58.4047    0.4261    0.0000    0.0000
  0.800   58.4495    0.3754   58.4357    0.4133   58.4442    0.4116   58.4258    0.3656   58.4914    0.4277   58.5020    0.4307    0.0000    0.0000
  0.810   58.5482    0.3797   58.5343    0.4178   58.5429    0.4161   58.5245    0.3699   58.5903    0.4324   58.6010    0.4354    0.0000    0.0000
  0.820   58.6486    0.3840   58.6346    0.4223   58.6432    0.4206   58.6248    0.3742   58.6908    0.4372   58.7015    0.4401    0.0000    0.0000
  0.830   58.7505    0.3884   58.7365    0.4269   58.7452    0.4252   58.7267    0.3786   58.7930    0.4420   58.8037    0.4449    0.0000    0.0000
  0.840   58.8541    0.3928   58.8400    0.4315   58.8487    0.4299   58.8302    0.3830   58.8967    0.4468   58.9074    0.4498    0.0000    0.0000
  0.850   58.9593    0.3972   58.9451    0.4362   58.9539    0.4345   58.9354    0.3875   59.0021    0.4517   59.0128    0.4547    0.0000    0.0000
  0.860   59.0661    0.4017   59.0519    0.4410   59.0607    0.4393   59.0422    0.3920   59.1092    0.4567   59.1199    0.4597    0.0000    0.0000
  0.870   59.1746    0.4063   59.1603    0.4458   59.1692    0.4441   59.1507    0.3965   59.2179    0.4617   59.2286    0.4647    0.0000    0.0000
  0.880   59.2848    0.4109   59.2705    0.4506   59.2793    0.4489   59.2608    0.4012   59.3283    0.4667   59.3391    0.4697    0.0000    0.0000
  0.890   59.3967    0.4155   59.3823    0.4555   59.3912    0.4539   59.3727    0.4058   59.4404    0.4719   59.4512    0.4749    0.0000    0.0000
  0.900   59.5104    0.4203   59.4958    0.4605   59.5048    0.4588   59.4863    0.4106   59.5542    0.4771   59.5651    0.4801    0.0000    0.0000
  0.910   59.6257    0.4250   59.6111    0.4655   59.6201    0.4639   59.6016    0.4153   59.6698    0.4823   59.6806    0.4853    0.0000    0.0000
  0.920   59.7428    0.4298   59.7281    0.4706   59.7372    0.4689   59.7187    0.4202   59.7871    0.4876   59.7980    0.4906    0.0000    0.0000
  0.930   59.8617    0.4347   59.8470    0.4758   59.8561    0.4741   59.8376    0.4251   59.9062    0.4930   59.9171    0.4960    0.0000    0.0000
  0.940   59.9824    0.4397   59.9676    0.4810   59.9767    0.4793   59.9582    0.4300   60.0272    0.4984   60.0381    0.5014    0.0000    0.0000
  0.950   60.1049    0.4447   60.0900    0.4862   60.0992    0.4846   60.0807    0.4350   60.1499    0.5040   60.1608    0.5069    0.0000    0.0000
  0.960   60.2293    0.4497   60.2142    0.4916   60.2235    0.4899   60.2050    0.4401   60.2745    0.5095   60.2854    0.5125    0.0000    0.0000
  0.970   60.3555    0.4548   60.3403    0.4970   60.3497    0.4953   60.3311    0.4452   60.4009    0.5152   60.4119    0.5182    0.0000    0.0000
  0.980   60.4835    0.4600   60.4683    0.5025   60.4777    0.5008   60.4592    0.4504   60.5292    0.5209   60.5402    0.5239    0.0000    0.0000
  0.990   60.6135    0.4653   60.5982    0.5080   60.6076    0.5063   60.5891    0.4557   60.6594    0.5267   60.6705    0.5297    0.0000    0.0000
  1.000   60.7454    0.4706   60.7300    0.5136   60.7395    0.5119   60.7210    0.4610   60.7916    0.5325   60.8026    0.5355    0.0000    0.0000
  1.010   60.8792    0.4760   60.8638    0.5193   60.8733    0.5176   60.8548    0.4664   60.9257    0.5384   60.9368    0.5414    0.0000    0.0000
  1.020   61.0150    0.4814   60.9995    0.5250   61.0091    0.5233   60.9905    0.4719   61.0617    0.5445   61.0729    0.5474    0.0000    0.0000
  1.030   61.1528    0.4869   61.1372    0.5308   61.1468    0.5292   61.1283    0.4774   61.1998    0.5505   61.2109    0.5535    0.0000    0.0000
  1.040   61.2927    0.4925   61.2769    0.5367   61.2866    0.5350   61.2680    0.4830   61.3399    0.5567   61.3510    0.5597    0.0000    0.0000
  1.050   61.4345    0.4982   61.4187    0.5427   61.4284    0.5410   61.4098    0.4887   61.4820    0.5629   61.4932    0.5659    0.0000    0.0000
  1.060   61.5784    0.5039   61.5625    0.5488   61.5723    0.5471   61.5537    0.4944   61.6262    0.5693   61.6374    0.5722    0.0000    0.0000
  1.070   61.7244    0.5097   61.7084    0.5549   61.7182    0.5532   61.6997    0.5002   61.7725    0.5757   61.7837    0.5787    0.0000    0.0000
  1.080   61.8725    0.5156   61.8564    0.5611   61.8663    0.5594   61.8478    0.5061   61.9209    0.5821   61.9322    0.5851    0.0000    0.0000
  1.090   62.0228    0.5215   62.0065    0.5674   62.0165    0.5657   61.9980    0.5121   62.0714    0.5887   62.0827    0.5917    0.0000    0.0000
  1.100   62.1752    0.5276   62.1589    0.5738   62.1689    0.5721   62.1504    0.5182   62.2242    0.5954   62.2355    0.5984    0.0000    0.0000
  1.110   62.3299    0.5337   62.3134    0.5802   62.3235    0.5786   62.3049    0.5243   62.3791    0.6021   62.3905    0.6051    0.0000    0.0000
  1.120   62.4867    0.5399   62.4701    0.5868   62.4803    0.5851   62.4618    0.5305   62.5363    0.6090   62.5476    0.6120    0.0000    0.0000
  1.130   62.6458    0.5462   62.6292    0.5934   62.6393    0.5918   62.6208    0.5368   62.6957    0.6159   62.7071    0.6189    0.0000    0.0000
  1.140   62.8072    0.5526   62.7904    0.6002   62.8007    0.5985   62.7822    0.5432   62.8574    0.6230   62.8689    0.6260    0.0000    0.0000
  1.150   62.9709    0.5591   62.9540    0.6070   62.9644    0.6053   62.9459    0.5497   63.0215    0.6301   63.0329    0.6331    0.0000    0.0000
  1.160   63.1370    0.5656   63.1200    0.6139   63.1304    0.6122   63.1119    0.5563   63.1879    0.6373   63.1993    0.6403    0.0000    0.0000
  1.170   63.3054    0.5723   63.2883    0.6210   63.2988    0.6193   63.2803    0.5630   63.3566    0.6447   63.3682    0.6477    0.0000    0.0000
  1.180   63.4763    0.5790   63.4591    0.6281   63.4696    0.6264   63.4511    0.5697   63.5278    0.6521   63.5394    0.6551    0.0000    0.0000
  1.190   63.6496    0.5859   63.6322    0.6353   63.6428    0.6336   63.6243    0.5766   63.7015    0.6597   63.7131    0.6627    0.0000    0.0000
  1.200   63.8254    0.5928   63.8079    0.6426   63.8185    0.6410   63.8001    0.5836   63.8776    0.6673   63.8892    0.6703    0.0000    0.0000
  1.210   64.0037    0.5999   63.9861    0.6501   63.9968    0.6484   63.9783    0.5906   64.0563    0.6751   64.0679    0.6781    0.0000    0.0000
  1.220   64.1845    0.6070   64.1668    0.6576   64.1775    0.6559   64.1591    0.5978   64.2375    0.6830   64.2492    0.6860    0.0000    0.0000
  1.230   64.3680    0.6143   64.3501    0.6653   64.3609    0.6636   64.3425    0.6051   64.4213    0.6910   64.4330    0.6940    0.0000    0.0000
  1.240   64.5540    0.6216   64.5360    0.6730   64.5469    0.6714   64.5285    0.6124   64.6077    0.6991   64.6195    0.7021    0.0000    0.0000
  1.250   64.7427    0.6291   64.7246    0.6809   64.7356    0.6792   64.7172    0.6199   64.7969    0.7074   64.8086    0.7104    0.0000    0.0000
  1.260   64.9341    0.6367   64.9159    0.6889   64.9269    0.6872   64.9086    0.6275   64.9887    0.7157   65.0005    0.7187    0.0000    0.0000
  1.270   65.1283    0.6444   65.1099    0.6971   65.1210    0.6954   65.1027    0.6353   65.1832    0.7242   65.1951    0.7272    0.0000    0.0000
  1.280   65.3252    0.6522   65.3067    0.7053   65.3179    0.7036   65.2996    0.6431   65.3806    0.7328   65.3925    0.7358    0.0000    0.0000
