# Macroscopic dielectric function obtained with the BS equation.
#  RPA L0 with KS energies and KS wavefunctions     LOCAL FIELD EFFECTS INCLUDED
# RESONANT-ONLY calculation
# Coulomb term constructed with full W(G1,G2)
# Scissor operator energy =  0.8000 [eV]
# nstates included in the diagonalization = 96
# npweps  = 113
# npwwfn  = 283
# nbands  = 8
# loband  = 2
# nkibz   = 3
# nkbz    = 8
# Lorentzian broadening =  0.0000 [eV]
# List of q-points for the optical limit:
# q =  0.938821, 0.000000, 0.000000, [Reduced coords] 
# q =  0.000000, 0.938821, 0.000000, [Reduced coords] 
# q =  0.000000, 0.000000, 0.938821, [Reduced coords] 
# q =  0.000000, 0.813043, 0.813043, [Reduced coords] 
# q =  0.813043, 0.000000, 0.813043, [Reduced coords] 
# q =  0.813043, 0.813043, 0.000000, [Reduced coords] 
# omega [eV]    RE(eps(q=1)) IM(eps(q=1) RE(eps(q=2) ) ... DOS   IDOS
  0.000   57.5754    0.4343   57.4599    0.5791   57.4796    0.5743   57.4977    0.3957   57.6833    0.5279   57.6868    0.5354   -0.0000   -0.0000
  0.010   57.5760    0.4532   57.4602    0.5984   57.4798    0.5936   57.4983    0.4147   57.6837    0.5478   57.6872    0.5553   -0.0000   -0.0000
  0.020   57.5778    0.4720   57.4618    0.6178   57.4814    0.6130   57.5002    0.4338   57.6853    0.5677   57.6888    0.5752   -0.0000   -0.0000
  0.030   57.5809    0.4909   57.4645    0.6372   57.4841    0.6324   57.5033    0.4529   57.6882    0.5876   57.6917    0.5952   -0.0000   -0.0000
  0.040   57.5851    0.5098   57.4685    0.6567   57.4881    0.6518   57.5077    0.4720   57.6924    0.6076   57.6959    0.6152   -0.0000   -0.0000
  0.050   57.5907    0.5288   57.4738    0.6762   57.4933    0.6713   57.5132    0.4912   57.6978    0.6277   57.7012    0.6353   -0.0000   -0.0000
  0.060   57.5974    0.5478   57.4803    0.6957   57.4998    0.6908   57.5201    0.5103   57.7044    0.6477   57.7079    0.6554   -0.0000   -0.0000
  0.070   57.6054    0.5668   57.4880    0.7153   57.5075    0.7104   57.5281    0.5296   57.7123    0.6679   57.7158    0.6755   -0.0000   -0.0000
  0.080   57.6147    0.5859   57.4969    0.7350   57.5164    0.7300   57.5374    0.5488   57.7214    0.6880   57.7249    0.6957   -0.0000   -0.0000
  0.090   57.6252    0.6051   57.5071    0.7546   57.5266    0.7497   57.5480    0.5682   57.7318    0.7083   57.7353    0.7159   -0.0000   -0.0000
  0.100   57.6369    0.6242   57.5185    0.7744   57.5380    0.7695   57.5598    0.5875   57.7434    0.7285   57.7469    0.7362   -0.0000   -0.0000
  0.110   57.6499    0.6435   57.5312    0.7942   57.5506    0.7893   57.5728    0.6069   57.7563    0.7489   57.7598    0.7566   -0.0000   -0.0000
  0.120   57.6642    0.6627   57.5451    0.8141   57.5645    0.8091   57.5871    0.6264   57.7704    0.7693   57.7739    0.7770   -0.0000   -0.0000
  0.130   57.6796    0.6821   57.5602    0.8340   57.5796    0.8290   57.6026    0.6459   57.7858    0.7897   57.7893    0.7975   -0.0000   -0.0000
  0.140   57.6964    0.7015   57.5766    0.8540   57.5960    0.8490   57.6194    0.6655   57.8025    0.8102   57.8060    0.8180   -0.0000   -0.0000
  0.150   57.7144    0.7209   57.5942    0.8741   57.6136    0.8691   57.6374    0.6851   57.8204    0.8308   57.8239    0.8386   -0.0000   -0.0000
  0.160   57.7336    0.7404   57.6131    0.8942   57.6324    0.8892   57.6567    0.7048   57.8396    0.8515   57.8430    0.8593   -0.0000   -0.0000
  0.170   57.7541    0.7600   57.6333    0.9144   57.6526    0.9094   57.6773    0.7245   57.8600    0.8722   57.8635    0.8801   -0.0000   -0.0000
  0.180   57.7759    0.7797   57.6546    0.9347   57.6739    0.9297   57.6991    0.7444   57.8817    0.8930   57.8852    0.9009   -0.0000   -0.0000
  0.190   57.7990    0.7994   57.6773    0.9551   57.6966    0.9501   57.7221    0.7643   57.9047    0.9139   57.9082    0.9218   -0.0000   -0.0000
  0.200   57.8233    0.8192   57.7012    0.9756   57.7204    0.9705   57.7465    0.7842   57.9290    0.9349   57.9324    0.9428   -0.0000   -0.0000
  0.210   57.8488    0.8391   57.7264    0.9961   57.7456    0.9911   57.7721    0.8043   57.9545    0.9560   57.9580    0.9639   -0.0000   -0.0000
  0.220   57.8757    0.8591   57.7528    1.0167   57.7720    1.0117   57.7990    0.8244   57.9813    0.9771   57.9848    0.9851   -0.0000   -0.0000
  0.230   57.9038    0.8791   57.7805    1.0375   57.7997    1.0324   57.8271    0.8446   58.0094    0.9984   58.0129    1.0063   -0.0000   -0.0000
  0.240   57.9333    0.8992   57.8095    1.0583   57.8287    1.0532   57.8566    0.8649   58.0388    1.0197   58.0422    1.0277   -0.0000   -0.0000
  0.250   57.9640    0.9195   57.8397    1.0792   57.8589    1.0741   57.8873    0.8853   58.0695    1.0411   58.0729    1.0491   -0.0000   -0.0000
  0.260   57.9960    0.9398   57.8713    1.1002   57.8904    1.0951   57.9193    0.9058   58.1014    1.0627   58.1049    1.0707   -0.0000   -0.0000
  0.270   58.0293    0.9602   57.9041    1.1214   57.9233    1.1163   57.9526    0.9263   58.1347    1.0843   58.1382    1.0924   -0.0000   -0.0000
  0.280   58.0638    0.9807   57.9382    1.1426   57.9574    1.1375   57.9872    0.9470   58.1693    1.1060   58.1727    1.1141   -0.0000   -0.0000
  0.290   58.0997    1.0013   57.9736    1.1640   57.9928    1.1588   58.0231    0.9678   58.2052    1.1279   58.2086    1.1360   -0.0000   -0.0000
  0.300   58.1370    1.0220   58.0103    1.1854   58.0295    1.1803   58.0603    0.9886   58.2424    1.1499   58.2458    1.1580   -0.0000   -0.0000
  0.310   58.1755    1.0429   58.0484    1.2070   58.0675    1.2018   58.0989    1.0096   58.2809    1.1720   58.2844    1.1801   -0.0000   -0.0000
  0.320   58.2153    1.0638   58.0877    1.2287   58.1068    1.2235   58.1387    1.0307   58.3207    1.1942   58.3242    1.2023   -0.0000   -0.0000
  0.330   58.2565    1.0848   58.1283    1.2505   58.1474    1.2453   58.1799    1.0519   58.3619    1.2165   58.3654    1.2247   -0.0000   -0.0000
  0.340   58.2990    1.1060   58.1703    1.2725   58.1894    1.2673   58.2224    1.0732   58.4044    1.2390   58.4079    1.2472   -0.0000   -0.0000
  0.350   58.3428    1.1273   58.2136    1.2945   58.2327    1.2894   58.2662    1.0946   58.4483    1.2616   58.4518    1.2698   -0.0000   -0.0000
  0.360   58.3880    1.1487   58.2582    1.3168   58.2773    1.3116   58.3114    1.1162   58.4935    1.2843   58.4970    1.2925   -0.0000   -0.0000
  0.370   58.4345    1.1702   58.3042    1.3391   58.3233    1.3339   58.3579    1.1379   58.5401    1.3071   58.5436    1.3154   -0.0000   -0.0000
  0.380   58.4824    1.1919   58.3515    1.3616   58.3706    1.3564   58.4058    1.1597   58.5880    1.3302   58.5915    1.3384   -0.0000   -0.0000
  0.390   58.5317    1.2137   58.4002    1.3842   58.4192    1.3790   58.4550    1.1816   58.6373    1.3533   58.6408    1.3616   -0.0000   -0.0000
  0.400   58.5823    1.2357   58.4502    1.4070   58.4692    1.4018   58.5056    1.2037   58.6880    1.3766   58.6915    1.3849   -0.0000   -0.0000
  0.410   58.6343    1.2577   58.5016    1.4300   58.5206    1.4247   58.5576    1.2259   58.7400    1.4000   58.7435    1.4084   -0.0000   -0.0000
  0.420   58.6877    1.2800   58.5543    1.4530   58.5734    1.4478   58.6110    1.2483   58.7935    1.4237   58.7970    1.4320   -0.0000   -0.0000
  0.430   58.7425    1.3023   58.6085    1.4763   58.6275    1.4710   58.6657    1.2708   58.8483    1.4474   58.8518    1.4558   -0.0000   -0.0000
  0.440   58.7986    1.3249   58.6640    1.4997   58.6831    1.4944   58.7219    1.2935   58.9046    1.4713   58.9080    1.4798   -0.0000   -0.0000
  0.450   58.8562    1.3475   58.7209    1.5233   58.7400    1.5180   58.7794    1.3163   58.9622    1.4954   58.9657    1.5039   -0.0000   -0.0000
  0.460   58.9152    1.3704   58.7793    1.5470   58.7983    1.5417   58.8384    1.3393   59.0213    1.5197   59.0248    1.5282   -0.0000   -0.0000
  0.470   58.9756    1.3934   58.8390    1.5709   58.8581    1.5656   58.8988    1.3624   59.0818    1.5442   59.0853    1.5526   -0.0000   -0.0000
  0.480   59.0375    1.4166   58.9002    1.5950   58.9192    1.5897   58.9606    1.3857   59.1438    1.5688   59.1473    1.5773   -0.0000   -0.0000
  0.490   59.1008    1.4399   58.9628    1.6193   58.9819    1.6140   59.0239    1.4092   59.2072    1.5936   59.2107    1.6021   -0.0000   -0.0000
  0.500   59.1655    1.4634   59.0269    1.6438   59.0459    1.6384   59.0886    1.4328   59.2720    1.6186   59.2755    1.6271   -0.0000   -0.0000
  0.510   59.2318    1.4871   59.0923    1.6684   59.1114    1.6631   59.1548    1.4566   59.3383    1.6438   59.3418    1.6524   -0.0000   -0.0000
  0.520   59.2994    1.5110   59.1593    1.6933   59.1783    1.6879   59.2224    1.4806   59.4061    1.6692   59.4096    1.6778   -0.0000   -0.0000
  0.530   59.3686    1.5351   59.2277    1.7183   59.2468    1.7129   59.2916    1.5048   59.4754    1.6948   59.4789    1.7034   -0.0000   -0.0000
  0.540   59.4393    1.5593   59.2976    1.7436   59.3167    1.7382   59.3622    1.5292   59.5462    1.7206   59.5497    1.7292   -0.0000   -0.0000
  0.550   59.5114    1.5838   59.3690    1.7691   59.3881    1.7636   59.4343    1.5538   59.6185    1.7466   59.6220    1.7552   -0.0000   -0.0000
  0.560   59.5851    1.6084   59.4419    1.7947   59.4609    1.7893   59.5079    1.5786   59.6923    1.7728   59.6958    1.7815   -0.0000   -0.0000
  0.570   59.6603    1.6333   59.5163    1.8206   59.5353    1.8152   59.5831    1.6036   59.7677    1.7992   59.7712    1.8079   -0.0000   -0.0000
  0.580   59.7370    1.6583   59.5922    1.8467   59.6113    1.8413   59.6598    1.6288   59.8445    1.8259   59.8480    1.8346   -0.0000   -0.0000
  0.590   59.8153    1.6836   59.6696    1.8731   59.6887    1.8676   59.7380    1.6542   59.9230    1.8528   59.9265    1.8615   -0.0000   -0.0000
  0.600   59.8951    1.7091   59.7486    1.8997   59.7677    1.8942   59.8178    1.6798   60.0030    1.8799   60.0065    1.8887   -0.0000   -0.0000
  0.610   59.9765    1.7348   59.8292    1.9265   59.8483    1.9209   59.8991    1.7056   60.0845    1.9073   60.0880    1.9161   -0.0000   -0.0000
  0.620   60.0595    1.7608   59.9113    1.9535   59.9304    1.9480   59.9820    1.7317   60.1677    1.9349   60.1712    1.9437   -0.0000   -0.0000
  0.630   60.1441    1.7870   59.9950    1.9808   60.0141    1.9753   60.0665    1.7580   60.2524    1.9628   60.2560    1.9716   -0.0000   -0.0000
  0.640   60.2302    1.8134   60.0803    2.0084   60.0994    2.0028   60.1527    1.7846   60.3388    1.9909   60.3423    1.9998   -0.0000   -0.0000
  0.650   60.3181    1.8401   60.1672    2.0362   60.1863    2.0306   60.2404    1.8114   60.4268    2.0193   60.4303    2.0282   -0.0000   -0.0000
  0.660   60.4075    1.8670   60.2557    2.0642   60.2748    2.0587   60.3298    1.8384   60.5164    2.0479   60.5200    2.0568   -0.0000   -0.0000
  0.670   60.4986    1.8942   60.3459    2.0926   60.3650    2.0870   60.4208    1.8657   60.6077    2.0769   60.6113    2.0858   -0.0000   -0.0000
  0.680   60.5913    1.9216   60.4377    2.1212   60.4568    2.1156   60.5135    1.8932   60.7007    2.1061   60.7043    2.1150   -0.0000   -0.0000
  0.690   60.6858    1.9493   60.5311    2.1501   60.5503    2.1445   60.6079    1.9211   60.7953    2.1355   60.7989    2.1445   -0.0000   -0.0000
  0.700   60.7819    1.9773   60.6263    2.1793   60.6454    2.1736   60.7039    1.9491   60.8917    2.1653   60.8953    2.1743   -0.0000   -0.0000
  0.710   60.8797    2.0055   60.7231    2.2087   60.7423    2.2031   60.8017    1.9775   60.9898    2.1954   60.9933    2.2044   -0.0000   -0.0000
  0.720   60.9793    2.0340   60.8216    2.2385   60.8408    2.2328   60.9011    2.0062   61.0895    2.2258   61.0931    2.2348   -0.0000   -0.0000
  0.730   61.0806    2.0628   60.9219    2.2686   60.9411    2.2629   61.0024    2.0351   61.1911    2.2565   61.1947    2.2655   -0.0000   -0.0000
  0.740   61.1836    2.0920   61.0239    2.2989   61.0431    2.2932   61.1053    2.0643   61.2944    2.2875   61.2980    2.2966   -0.0000   -0.0000
  0.750   61.2884    2.1214   61.1276    2.3296   61.1469    2.3239   61.2101    2.0939   61.3994    2.3188   61.4030    2.3279   -0.0000   -0.0000
  0.760   61.3950    2.1511   61.2332    2.3607   61.2524    2.3549   61.3166    2.1237   61.5063    2.3505   61.5099    2.3596   -0.0000   -0.0000
  0.770   61.5034    2.1811   61.3405    2.3920   61.3597    2.3863   61.4249    2.1539   61.6150    2.3825   61.6186    2.3916   -0.0000   -0.0000
  0.780   61.6137    2.2115   61.4496    2.4237   61.4689    2.4179   61.5351    2.1843   61.7255    2.4148   61.7291    2.4240   -0.0000   -0.0000
  0.790   61.7258    2.2422   61.5605    2.4557   61.5798    2.4500   61.6471    2.2151   61.8379    2.4475   61.8415    2.4567   -0.0000   -0.0000
  0.800   61.8397    2.2732   61.6733    2.4881   61.6926    2.4823   61.7609    2.2463   61.9521    2.4805   61.9557    2.4898   -0.0000   -0.0000
  0.810   61.9555    2.3045   61.7880    2.5209   61.8073    2.5151   61.8767    2.2778   62.0682    2.5139   62.0719    2.5232   -0.0000   -0.0000
  0.820   62.0732    2.3363   61.9045    2.5540   61.9239    2.5482   61.9943    2.3096   62.1863    2.5477   62.1899    2.5570   -0.0000   -0.0000
  0.830   62.1929    2.3683   62.0229    2.5875   62.0423    2.5816   62.1138    2.3418   62.3062    2.5819   62.3098    2.5912   -0.0000   -0.0000
  0.840   62.3145    2.4007   62.1433    2.6213   62.1627    2.6155   62.2353    2.3743   62.4281    2.6164   62.4318    2.6258   -0.0000   -0.0000
  0.850   62.4380    2.4336   62.2656    2.6556   62.2850    2.6497   62.3588    2.4073   62.5520    2.6514   62.5556    2.6607   -0.0000   -0.0000
  0.860   62.5635    2.4667   62.3898    2.6902   62.4092    2.6844   62.4842    2.4406   62.6778    2.6868   62.6815    2.6961   -0.0000   -0.0000
  0.870   62.6910    2.5003   62.5161    2.7253   62.5355    2.7194   62.6116    2.4743   62.8057    2.7225   62.8094    2.7319   -0.0000   -0.0000
  0.880   62.8206    2.5343   62.6443    2.7608   62.6638    2.7549   62.7411    2.5084   62.9356    2.7587   62.9393    2.7681   -0.0000   -0.0000
  0.890   62.9522    2.5686   62.7745    2.7967   62.7940    2.7908   62.8726    2.5428   63.0675    2.7954   63.0712    2.8048   -0.0000   -0.0000
  0.900   63.0859    2.6034   62.9069    2.8330   62.9264    2.8271   63.0061    2.5778   63.2016    2.8324   63.2053    2.8419   -0.0000   -0.0000
  0.910   63.2216    2.6386   63.0412    2.8698   63.0608    2.8638   63.1418    2.6131   63.3377    2.8700   63.3414    2.8794   -0.0000   -0.0000
  0.920   63.3595    2.6743   63.1777    2.9070   63.1973    2.9010   63.2796    2.6489   63.4760    2.9080   63.4797    2.9175   -0.0000   -0.0000
  0.930   63.4995    2.7104   63.3163    2.9447   63.3359    2.9387   63.4195    2.6851   63.6164    2.9464   63.6201    2.9559   -0.0000   -0.0000
  0.940   63.6417    2.7469   63.4571    2.9828   63.4767    2.9768   63.5616    2.7217   63.7590    2.9854   63.7627    2.9949   -0.0000   -0.0000
  0.950   63.7861    2.7839   63.6000    3.0215   63.6196    3.0155   63.7059    2.7589   63.9037    3.0248   63.9075    3.0344   -0.0000   -0.0000
  0.960   63.9327    2.8214   63.7451    3.0606   63.7647    3.0546   63.8524    2.7964   64.0508    3.0647   64.0545    3.0743   -0.0000   -0.0000
  0.970   64.0816    2.8593   63.8924    3.1002   63.9121    3.0942   64.0011    2.8345   64.2000    3.1052   64.2038    3.1148   -0.0000   -0.0000
  0.980   64.2327    2.8977   64.0420    3.1404   64.0617    3.1343   64.1521    2.8731   64.3516    3.1461   64.3554    3.1558   -0.0000   -0.0000
  0.990   64.3861    2.9367   64.1939    3.1810   64.2136    3.1750   64.3054    2.9122   64.5055    3.1876   64.5093    3.1973   -0.0000   -0.0000
  1.000   64.5419    2.9761   64.3480    3.2222   64.3678    3.2162   64.4611    2.9517   64.6617    3.2297   64.6655    3.2394   -0.0000   -0.0000
  1.010   64.7000    3.0161   64.5046    3.2640   64.5243    3.2579   64.6191    2.9919   64.8203    3.2723   64.8241    3.2820   -0.0000   -0.0000
  1.020   64.8606    3.0566   64.6634    3.3063   64.6832    3.3002   64.7795    3.0325   64.9812    3.3155   64.9851    3.3252   -0.0000   -0.0000
  1.030   65.0235    3.0977   64.8247    3.3492   64.8445    3.3430   64.9423    3.0737   65.1447    3.3593   65.1485    3.3690   -0.0000   -0.0000
  1.040   65.1889    3.1393   64.9884    3.3926   65.0083    3.3865   65.1076    3.1155   65.3105    3.4036   65.3144    3.4134   -0.0000   -0.0000
  1.050   65.3568    3.1815   65.1545    3.4367   65.1744    3.4305   65.2754    3.1578   65.4789    3.4486   65.4828    3.4584   -0.0000   -0.0000
  1.060   65.5272    3.2243   65.3232    3.4814   65.3431    3.4752   65.4457    3.2007   65.6498    3.4942   65.6537    3.5040   -0.0000   -0.0000
  1.070   65.7002    3.2676   65.4943    3.5266   65.5143    3.5205   65.6185    3.2442   65.8233    3.5405   65.8272    3.5503   -0.0000   -0.0000
  1.080   65.8757    3.3116   65.6680    3.5726   65.6880    3.5664   65.7939    3.2883   65.9993    3.5873   66.0033    3.5972   -0.0000   -0.0000
  1.090   66.0539    3.3562   65.8443    3.6191   65.8644    3.6129   65.9720    3.3331   66.1780    3.6349   66.1820    3.6448   -0.0000   -0.0000
  1.100   66.2347    3.4015   66.0233    3.6664   66.0433    3.6602   66.1527    3.3785   66.3594    3.6831   66.3633    3.6930   -0.0000   -0.0000
  1.110   66.4182    3.4474   66.2049    3.7143   66.2250    3.7081   66.3360    3.4246   66.5434    3.7321   66.5474    3.7420   -0.0000   -0.0000
  1.120   66.6045    3.4939   66.3892    3.7629   66.4093    3.7567   66.5222    3.4713   66.7302    3.7817   66.7343    3.7917   -0.0000   -0.0000
  1.130   66.7935    3.5412   66.5762    3.8123   66.5964    3.8060   66.7111    3.5187   66.9198    3.8321   66.9239    3.8421   -0.0000   -0.0000
  1.140   66.9853    3.5892   66.7660    3.8623   66.7862    3.8560   66.9028    3.5668   67.1122    3.8833   67.1163    3.8932   -0.0000   -0.0000
  1.150   67.1800    3.6378   66.9586    3.9131   66.9789    3.9068   67.0973    3.6156   67.3075    3.9351   67.3116    3.9451   -0.0000   -0.0000
  1.160   67.3776    3.6872   67.1541    3.9647   67.1744    3.9583   67.2948    3.6652   67.5057    3.9878   67.5098    3.9978   -0.0000   -0.0000
  1.170   67.5781    3.7374   67.3525    4.0170   67.3728    4.0107   67.4952    3.7155   67.7068    4.0413   67.7109    4.0513   -0.0000   -0.0000
  1.180   67.7816    3.7883   67.5538    4.0702   67.5742    4.0638   67.6985    3.7666   67.9109    4.0956   67.9150    4.1056   -0.0000   -0.0000
  1.190   67.9881    3.8400   67.7581    4.1241   67.7785    4.1177   67.9049    3.8185   68.1180    4.1507   68.1222    4.1608   -0.0000   -0.0000
  1.200   68.1977    3.8925   67.9654    4.1789   67.9859    4.1725   68.1143    3.8712   68.3282    4.2067   68.3324    4.2168   -0.0000   -0.0000
  1.210   68.4104    3.9459   68.1758    4.2345   68.1963    4.2281   68.3269    3.9247   68.5416    4.2635   68.5458    4.2736   -0.0000   -0.0000
  1.220   68.6262    4.0000   68.3893    4.2910   68.4098    4.2846   68.5426    3.9791   68.7581    4.3213   68.7623    4.3314   -0.0000   -0.0000
  1.230   68.8453    4.0551   68.6060    4.3485   68.6266    4.3420   68.7615    4.0343   68.9778    4.3800   68.9821    4.3901   -0.0000   -0.0000
  1.240   69.0676    4.1110   68.8259    4.4068   68.8465    4.4003   68.9837    4.0904   69.2008    4.4396   69.2051    4.4497   -0.0000   -0.0000
  1.250   69.2932    4.1678   69.0490    4.4660   69.0697    4.4596   69.2092    4.1474   69.4271    4.5002   69.4314    4.5103   -0.0000   -0.0000
  1.260   69.5222    4.2256   69.2755    4.5263   69.2962    4.5198   69.4381    4.2054   69.6568    4.5618   69.6611    4.5719   -0.0000   -0.0000
  1.270   69.7546    4.2843   69.5054    4.5875   69.5261    4.5810   69.6704    4.2643   69.8899    4.6243   69.8943    4.6345   -0.0000   -0.0000
  1.280   69.9905    4.3440   69.7386    4.6497   69.7594    4.6432   69.9061    4.3242   70.1265    4.6880   70.1309    4.6982   -0.0001   -0.0000
