# Macroscopic dielectric function obtained with the BS equation.
#  RPA L0 with KS energies and KS wavefunctions     LOCAL FIELD EFFECTS INCLUDED
# RESONANT-ONLY calculation
# Coulomb term constructed with full W(G1,G2)
# Scissor operator energy =  0.8000 [eV]
# nstates included in the diagonalization = 96
# npweps  = 113
# npwwfn  = 259
# nbands  = 8
# loband  = 2
# nkibz   = 3
# nkbz    = 8
# Lorentzian broadening =  0.0000 [eV]
# List of q-points for the optical limit:
# q =  0.938821, 0.000000, 0.000000, [Reduced coords] 
# q =  0.000000, 0.938821, 0.000000, [Reduced coords] 
# q =  0.000000, 0.000000, 0.938821, [Reduced coords] 
# q =  0.000000, 0.813043, 0.813043, [Reduced coords] 
# q =  0.813043, 0.000000, 0.813043, [Reduced coords] 
# q =  0.813043, 0.813043, 0.000000, [Reduced coords] 
# omega [eV]    RE(eps(q=1)) IM(eps(q=1) RE(eps(q=2) ) ... DOS   IDOS
  0.000   57.5899    0.4339   57.4738    0.5786   57.4937    0.5738   57.5250    0.3953   57.6974    0.5275   57.6881    0.5347   -0.0000   -0.0000
  0.010   57.5905    0.4527   57.4742    0.5980   57.4940    0.5931   57.5256    0.4143   57.6978    0.5474   57.6885    0.5546   -0.0000   -0.0000
  0.020   57.5923    0.4716   57.4757    0.6174   57.4955    0.6125   57.5275    0.4334   57.6994    0.5673   57.6902    0.5746   -0.0000   -0.0000
  0.030   57.5953    0.4905   57.4785    0.6368   57.4982    0.6319   57.5306    0.4525   57.7023    0.5873   57.6931    0.5945   -0.0000   -0.0000
  0.040   57.5996    0.5094   57.4825    0.6562   57.5022    0.6514   57.5349    0.4716   57.7065    0.6073   57.6972    0.6145   -0.0000   -0.0000
  0.050   57.6052    0.5284   57.4877    0.6757   57.5074    0.6709   57.5405    0.4908   57.7119    0.6273   57.7026    0.6346   -0.0000   -0.0000
  0.060   57.6119    0.5474   57.4942    0.6953   57.5139    0.6904   57.5473    0.5100   57.7185    0.6474   57.7093    0.6547   -0.0000   -0.0000
  0.070   57.6199    0.5664   57.5019    0.7149   57.5216    0.7100   57.5554    0.5292   57.7264    0.6676   57.7171    0.6748   -0.0000   -0.0000
  0.080   57.6292    0.5855   57.5109    0.7345   57.5305    0.7296   57.5647    0.5485   57.7355    0.6877   57.7263    0.6950   -0.0000   -0.0000
  0.090   57.6397    0.6046   57.5211    0.7542   57.5407    0.7493   57.5753    0.5678   57.7459    0.7080   57.7367    0.7153   -0.0000   -0.0000
  0.100   57.6514    0.6238   57.5325    0.7740   57.5521    0.7690   57.5870    0.5872   57.7575    0.7282   57.7483    0.7356   -0.0000   -0.0000
  0.110   57.6644    0.6430   57.5452    0.7938   57.5647    0.7888   57.6001    0.6066   57.7704    0.7486   57.7612    0.7559   -0.0000   -0.0000
  0.120   57.6787    0.6623   57.5591    0.8136   57.5786    0.8087   57.6144    0.6261   57.7846    0.7690   57.7753    0.7763   -0.0000   -0.0000
  0.130   57.6942    0.6817   57.5742    0.8336   57.5937    0.8286   57.6299    0.6456   57.8000    0.7894   57.7907    0.7968   -0.0000   -0.0000
  0.140   57.7109    0.7011   57.5906    0.8536   57.6101    0.8486   57.6467    0.6652   57.8166    0.8100   57.8073    0.8174   -0.0000   -0.0000
  0.150   57.7289    0.7205   57.6082    0.8737   57.6277    0.8687   57.6647    0.6848   57.8345    0.8306   57.8253    0.8380   -0.0000   -0.0000
  0.160   57.7482    0.7401   57.6271    0.8938   57.6466    0.8888   57.6840    0.7045   57.8537    0.8512   57.8444    0.8587   -0.0000   -0.0000
  0.170   57.7687    0.7596   57.6472    0.9140   57.6667    0.9090   57.7046    0.7243   57.8742    0.8720   57.8649    0.8794   -0.0000   -0.0000
  0.180   57.7905    0.7793   57.6686    0.9343   57.6881    0.9293   57.7264    0.7441   57.8959    0.8928   57.8866    0.9002   -0.0000   -0.0000
  0.190   57.8135    0.7990   57.6913    0.9547   57.7107    0.9497   57.7495    0.7640   57.9189    0.9137   57.9096    0.9212   -0.0000   -0.0000
  0.200   57.8378    0.8188   57.7152    0.9752   57.7346    0.9701   57.7738    0.7840   57.9431    0.9347   57.9338    0.9422   -0.0000   -0.0000
  0.210   57.8634    0.8387   57.7404    0.9957   57.7598    0.9907   57.7994    0.8040   57.9686    0.9557   57.9594    0.9632   -0.0000   -0.0000
  0.220   57.8903    0.8587   57.7668    1.0164   57.7862    1.0113   57.8263    0.8242   57.9955    0.9769   57.9862    0.9844   -0.0000   -0.0000
  0.230   57.9184    0.8788   57.7945    1.0371   57.8139    1.0320   57.8545    0.8444   58.0236    0.9981   58.0143    1.0057   -0.0000   -0.0000
  0.240   57.9478    0.8989   57.8235    1.0579   57.8429    1.0529   57.8840    0.8647   58.0530    1.0195   58.0436    1.0270   -0.0000   -0.0000
  0.250   57.9785    0.9191   57.8538    1.0789   57.8731    1.0738   57.9147    0.8851   58.0836    1.0409   58.0743    1.0485   -0.0000   -0.0000
  0.260   58.0105    0.9394   57.8853    1.0999   57.9046    1.0948   57.9467    0.9055   58.1156    1.0624   58.1063    1.0700   -0.0000   -0.0000
  0.270   58.0438    0.9599   57.9181    1.1210   57.9375    1.1159   57.9800    0.9261   58.1489    1.0841   58.1396    1.0917   -0.0000   -0.0000
  0.280   58.0784    0.9804   57.9523    1.1423   57.9716    1.1371   58.0147    0.9468   58.1835    1.1058   58.1742    1.1135   -0.0000   -0.0000
  0.290   58.1144    1.0010   57.9877    1.1636   58.0070    1.1585   58.0506    0.9676   58.2194    1.1277   58.2100    1.1353   -0.0000   -0.0000
  0.300   58.1516    1.0217   58.0244    1.1851   58.0437    1.1799   58.0878    0.9884   58.2566    1.1497   58.2473    1.1573   -0.0000   -0.0000
  0.310   58.1901    1.0425   58.0624    1.2067   58.0817    1.2015   58.1263    1.0094   58.2951    1.1718   58.2858    1.1794   -0.0000   -0.0000
  0.320   58.2300    1.0635   58.1018    1.2284   58.1210    1.2232   58.1662    1.0305   58.3350    1.1940   58.3256    1.2017   -0.0000   -0.0000
  0.330   58.2711    1.0845   58.1424    1.2502   58.1617    1.2450   58.2074    1.0517   58.3762    1.2163   58.3668    1.2240   -0.0000   -0.0000
  0.340   58.3136    1.1057   58.1844    1.2721   58.2036    1.2670   58.2499    1.0730   58.4187    1.2388   58.4093    1.2465   -0.0000   -0.0000
  0.350   58.3575    1.1270   58.2277    1.2942   58.2469    1.2890   58.2938    1.0945   58.4626    1.2614   58.4532    1.2691   -0.0000   -0.0000
  0.360   58.4027    1.1484   58.2723    1.3164   58.2916    1.3112   58.3390    1.1160   58.5078    1.2841   58.4984    1.2919   -0.0000   -0.0000
  0.370   58.4492    1.1699   58.3183    1.3388   58.3375    1.3336   58.3855    1.1377   58.5544    1.3070   58.5450    1.3148   -0.0000   -0.0000
  0.380   58.4971    1.1916   58.3656    1.3613   58.3849    1.3561   58.4334    1.1596   58.6023    1.3300   58.5929    1.3378   -0.0000   -0.0000
  0.390   58.5464    1.2134   58.4143    1.3839   58.4335    1.3787   58.4826    1.1815   58.6516    1.3531   58.6422    1.3610   -0.0000   -0.0000
  0.400   58.5970    1.2354   58.4643    1.4067   58.4836    1.4015   58.5333    1.2036   58.7023    1.3764   58.6929    1.3843   -0.0000   -0.0000
  0.410   58.6490    1.2575   58.5157    1.4296   58.5350    1.4244   58.5853    1.2258   58.7544    1.3999   58.7449    1.4077   -0.0000   -0.0000
  0.420   58.7024    1.2797   58.5685    1.4527   58.5877    1.4475   58.6387    1.2482   58.8078    1.4235   58.7984    1.4314   -0.0000   -0.0000
  0.430   58.7572    1.3021   58.6227    1.4760   58.6419    1.4707   58.6934    1.2707   58.8627    1.4473   58.8532    1.4552   -0.0000   -0.0000
  0.440   58.8134    1.3246   58.6782    1.4994   58.6974    1.4941   58.7496    1.2934   58.9189    1.4712   58.9095    1.4791   -0.0000   -0.0000
  0.450   58.8710    1.3473   58.7352    1.5230   58.7544    1.5177   58.8072    1.3162   58.9766    1.4953   58.9671    1.5032   -0.0000   -0.0000
  0.460   58.9300    1.3701   58.7935    1.5467   58.8127    1.5414   58.8662    1.3392   59.0357    1.5196   59.0262    1.5275   -0.0000   -0.0000
  0.470   58.9904    1.3931   58.8533    1.5707   58.8725    1.5653   58.9266    1.3623   59.0962    1.5440   59.0867    1.5520   -0.0000   -0.0000
  0.480   59.0523    1.4163   58.9145    1.5948   58.9337    1.5894   58.9885    1.3856   59.1582    1.5687   59.1487    1.5766   -0.0000   -0.0000
  0.490   59.1156    1.4396   58.9771    1.6190   58.9963    1.6137   59.0518    1.4091   59.2216    1.5935   59.2121    1.6015   -0.0000   -0.0000
  0.500   59.1804    1.4632   59.0411    1.6435   59.0603    1.6381   59.1165    1.4328   59.2865    1.6185   59.2770    1.6265   -0.0000   -0.0000
  0.510   59.2466    1.4869   59.1066    1.6682   59.1258    1.6628   59.1827    1.4566   59.3528    1.6437   59.3433    1.6517   -0.0000   -0.0000
  0.520   59.3143    1.5107   59.1736    1.6930   59.1928    1.6876   59.2504    1.4806   59.4206    1.6691   59.4111    1.6771   -0.0000   -0.0000
  0.530   59.3835    1.5348   59.2420    1.7181   59.2612    1.7127   59.3195    1.5048   59.4899    1.6947   59.4804    1.7027   -0.0000   -0.0000
  0.540   59.4541    1.5591   59.3119    1.7433   59.3312    1.7379   59.3902    1.5292   59.5607    1.7205   59.5512    1.7285   -0.0000   -0.0000
  0.550   59.5263    1.5835   59.3833    1.7688   59.4026    1.7634   59.4623    1.5538   59.6330    1.7465   59.6235    1.7546   -0.0000   -0.0000
  0.560   59.6000    1.6082   59.4562    1.7945   59.4755    1.7890   59.5360    1.5786   59.7068    1.7727   59.6973    1.7808   -0.0000   -0.0000
  0.570   59.6752    1.6330   59.5307    1.8204   59.5499    1.8149   59.6111    1.6036   59.7822    1.7992   59.7726    1.8073   -0.0000   -0.0000
  0.580   59.7519    1.6581   59.6066    1.8465   59.6258    1.8410   59.6879    1.6288   59.8591    1.8258   59.8495    1.8339   -0.0000   -0.0000
  0.590   59.8302    1.6834   59.6841    1.8728   59.7033    1.8674   59.7661    1.6542   59.9375    1.8527   59.9279    1.8609   -0.0000   -0.0000
  0.600   59.9101    1.7089   59.7631    1.8994   59.7823    1.8939   59.8459    1.6798   60.0175    1.8799   60.0079    1.8880   -0.0000   -0.0000
  0.610   59.9915    1.7346   59.8436    1.9262   59.8629    1.9207   59.9273    1.7057   60.0991    1.9072   60.0895    1.9154   -0.0000   -0.0000
  0.620   60.0745    1.7606   59.9258    1.9533   59.9450    1.9478   60.0102    1.7318   60.1823    1.9349   60.1727    1.9430   -0.0000   -0.0000
  0.630   60.1591    1.7868   60.0095    1.9806   60.0287    1.9751   60.0948    1.7581   60.2671    1.9627   60.2574    1.9709   -0.0000   -0.0000
  0.640   60.2453    1.8132   60.0948    2.0081   60.1141    2.0026   60.1810    1.7846   60.3534    1.9909   60.3438    1.9991   -0.0000   -0.0000
  0.650   60.3331    1.8399   60.1817    2.0359   60.2010    2.0304   60.2687    1.8114   60.4415    2.0192   60.4318    2.0275   -0.0000   -0.0000
  0.660   60.4226    1.8668   60.2702    2.0640   60.2895    2.0585   60.3581    1.8385   60.5311    2.0479   60.5215    2.0562   -0.0000   -0.0000
  0.670   60.5137    1.8940   60.3604    2.0924   60.3797    2.0868   60.4492    1.8658   60.6224    2.0768   60.6128    2.0851   -0.0000   -0.0000
  0.680   60.6065    1.9214   60.4522    2.1210   60.4715    2.1154   60.5419    1.8933   60.7154    2.1060   60.7057    2.1143   -0.0000   -0.0000
  0.690   60.7009    1.9491   60.5457    2.1499   60.5650    2.1443   60.6363    1.9212   60.8101    2.1355   60.8004    2.1438   -0.0000   -0.0000
  0.700   60.7970    1.9771   60.6409    2.1791   60.6602    2.1734   60.7324    1.9493   60.9064    2.1653   60.8967    2.1736   -0.0000   -0.0000
  0.710   60.8949    2.0053   60.7377    2.2085   60.7571    2.2029   60.8302    1.9776   61.0045    2.1954   60.9948    2.2037   -0.0000   -0.0000
  0.720   60.9945    2.0338   60.8363    2.2383   60.8556    2.2326   60.9297    2.0063   61.1043    2.2258   61.0946    2.2341   -0.0000   -0.0000
  0.730   61.0958    2.0627   60.9366    2.2684   60.9559    2.2627   61.0310    2.0352   61.2059    2.2565   61.1961    2.2648   -0.0000   -0.0000
  0.740   61.1988    2.0918   61.0386    2.2988   61.0579    2.2931   61.1340    2.0645   61.3092    2.2875   61.2994    2.2959   -0.0000   -0.0000
  0.750   61.3037    2.1212   61.1423    2.3295   61.1617    2.3238   61.2388    2.0940   61.4143    2.3188   61.4045    2.3272   -0.0000   -0.0000
  0.760   61.4103    2.1509   61.2479    2.3605   61.2673    2.3548   61.3453    2.1239   61.5212    2.3505   61.5114    2.3589   -0.0000   -0.0000
  0.770   61.5187    2.1810   61.3552    2.3918   61.3746    2.3861   61.4537    2.1540   61.6299    2.3825   61.6201    2.3909   -0.0000   -0.0000
  0.780   61.6290    2.2113   61.4644    2.4235   61.4838    2.4178   61.5639    2.1845   61.7404    2.4148   61.7306    2.4232   -0.0000   -0.0000
  0.790   61.7411    2.2420   61.5753    2.4556   61.5948    2.4498   61.6759    2.2153   61.8528    2.4475   61.8430    2.4560   -0.0000   -0.0000
  0.800   61.8551    2.2730   61.6881    2.4880   61.7076    2.4822   61.7898    2.2465   61.9671    2.4806   61.9572    2.4890   -0.0000   -0.0000
  0.810   61.9709    2.3044   61.8028    2.5207   61.8223    2.5149   61.9056    2.2780   62.0832    2.5140   62.0734    2.5225   -0.0000   -0.0000
  0.820   62.0887    2.3361   61.9194    2.5538   61.9389    2.5480   62.0233    2.3098   62.2013    2.5478   62.1914    2.5563   -0.0000   -0.0000
  0.830   62.2083    2.3682   62.0378    2.5873   62.0573    2.5815   62.1429    2.3420   62.3212    2.5819   62.3114    2.5904   -0.0000   -0.0000
  0.840   62.3299    2.4006   62.1582    2.6212   62.1777    2.6153   62.2644    2.3746   62.4432    2.6165   62.4333    2.6250   -0.0000   -0.0000
  0.850   62.4535    2.4334   62.2805    2.6554   62.3001    2.6496   62.3879    2.4075   62.5670    2.6515   62.5571    2.6600   -0.0000   -0.0000
  0.860   62.5790    2.4666   62.4048    2.6901   62.4243    2.6842   62.5134    2.4408   62.6929    2.6868   62.6830    2.6954   -0.0000   -0.0000
  0.870   62.7066    2.5002   62.5310    2.7251   62.5506    2.7193   62.6408    2.4745   62.8208    2.7226   62.8109    2.7312   -0.0000   -0.0000
  0.880   62.8362    2.5342   62.6593    2.7606   62.6789    2.7547   62.7703    2.5086   62.9507    2.7588   62.9408    2.7674   -0.0000   -0.0000
  0.890   62.9678    2.5685   62.7896    2.7965   62.8092    2.7906   62.9019    2.5431   63.0827    2.7954   63.0727    2.8040   -0.0000   -0.0000
  0.900   63.1015    2.6033   62.9219    2.8329   62.9416    2.8269   63.0355    2.5781   63.2168    2.8325   63.2068    2.8411   -0.0000   -0.0000
  0.910   63.2373    2.6385   63.0563    2.8696   63.0760    2.8637   63.1712    2.6134   63.3529    2.8700   63.3429    2.8787   -0.0000   -0.0000
  0.920   63.3752    2.6742   63.1928    2.9069   63.2125    2.9009   63.3090    2.6492   63.4912    2.9080   63.4812    2.9167   -0.0000   -0.0000
  0.930   63.5152    2.7103   63.3314    2.9446   63.3512    2.9386   63.4490    2.6854   63.6316    2.9465   63.6216    2.9552   -0.0000   -0.0000
  0.940   63.6574    2.7468   63.4722    2.9827   63.4920    2.9767   63.5912    2.7221   63.7743    2.9855   63.7642    2.9941   -0.0000   -0.0000
  0.950   63.8019    2.7838   63.6152    3.0214   63.6350    3.0154   63.7355    2.7592   63.9191    3.0249   63.9090    3.0336   -0.0000   -0.0000
  0.960   63.9485    2.8213   63.7603    3.0605   63.7801    3.0545   63.8820    2.7968   64.0661    3.0648   64.0561    3.0735   -0.0000   -0.0000
  0.970   64.0974    2.8592   63.9077    3.1001   63.9275    3.0941   64.0308    2.8349   64.2154    3.1053   64.2054    3.1140   -0.0000   -0.0000
  0.980   64.2485    2.8976   64.0573    3.1403   64.0771    3.1342   64.1819    2.8735   64.3670    3.1463   64.3569    3.1550   -0.0000   -0.0000
  0.990   64.4020    2.9366   64.2092    3.1809   64.2291    3.1749   64.3353    2.9125   64.5209    3.1878   64.5108    3.1965   -0.0000   -0.0000
  1.000   64.5578    2.9760   64.3634    3.2221   64.3833    3.2161   64.4910    2.9521   64.6772    3.2298   64.6670    3.2386   -0.0000   -0.0000
  1.010   64.7160    3.0160   64.5199    3.2639   64.5399    3.2578   64.6491    2.9923   64.8358    3.2724   64.8256    3.2812   -0.0000   -0.0000
  1.020   64.8765    3.0565   64.6788    3.3062   64.6988    3.3001   64.8095    3.0329   64.9968    3.3156   64.9866    3.3244   -0.0000   -0.0000
  1.030   65.0395    3.0976   64.8401    3.3491   64.8601    3.3430   64.9724    3.0741   65.1602    3.3594   65.1501    3.3682   -0.0000   -0.0000
  1.040   65.2049    3.1392   65.0038    3.3925   65.0239    3.3864   65.1378    3.1159   65.3261    3.4038   65.3160    3.4126   -0.0000   -0.0000
  1.050   65.3728    3.1814   65.1700    3.4366   65.1901    3.4305   65.3056    3.1582   65.4945    3.4488   65.4843    3.4576   -0.0000   -0.0000
  1.060   65.5433    3.2242   65.3387    3.4813   65.3588    3.4751   65.4759    3.2012   65.6655    3.4944   65.6553    3.5032   -0.0000   -0.0000
  1.070   65.7163    3.2676   65.5098    3.5266   65.5300    3.5204   65.6488    3.2447   65.8390    3.5406   65.8287    3.5494   -0.0000   -0.0000
  1.080   65.8919    3.3115   65.6836    3.5725   65.7038    3.5663   65.8243    3.2888   66.0151    3.5875   66.0048    3.5963   -0.0000   -0.0000
  1.090   66.0701    3.3562   65.8599    3.6191   65.8801    3.6129   66.0024    3.3336   66.1938    3.6351   66.1835    3.6439   -0.0000   -0.0000
  1.100   66.2509    3.4014   66.0389    3.6663   66.0591    3.6601   66.1832    3.3790   66.3752    3.6833   66.3649    3.6922   -0.0000   -0.0000
  1.110   66.4345    3.4473   66.2205    3.7142   66.2408    3.7080   66.3666    3.4251   66.5593    3.7323   66.5490    3.7411   -0.0000   -0.0000
  1.120   66.6208    3.4939   66.4049    3.7629   66.4252    3.7566   66.5528    3.4718   66.7461    3.7819   66.7358    3.7908   -0.0000   -0.0000
  1.130   66.8098    3.5412   66.5919    3.8122   66.6123    3.8059   66.7418    3.5192   66.9357    3.8323   66.9254    3.8412   -0.0000   -0.0000
  1.140   67.0017    3.5891   66.7818    3.8623   66.8022    3.8560   66.9336    3.5674   67.1282    3.8834   67.1179    3.8923   -0.0000   -0.0000
  1.150   67.1964    3.6378   66.9744    3.9131   66.9948    3.9068   67.1282    3.6162   67.3235    3.9353   67.3131    3.9442   -0.0000   -0.0000
  1.160   67.3940    3.6872   67.1699    3.9646   67.1904    3.9583   67.3257    3.6658   67.5217    3.9880   67.5113    3.9969   -0.0000   -0.0000
  1.170   67.5946    3.7374   67.3683    4.0170   67.3888    4.0106   67.5262    3.7161   67.7228    4.0415   67.7125    4.0504   -0.0000   -0.0000
  1.180   67.7981    3.7883   67.5697    4.0701   67.5902    4.0638   67.7296    3.7672   67.9270    4.0958   67.9166    4.1047   -0.0000   -0.0000
  1.190   68.0047    3.8400   67.7740    4.1241   67.7946    4.1177   67.9361    3.8191   68.1341    4.1509   68.1238    4.1598   -0.0000   -0.0000
  1.200   68.2143    3.8925   67.9814    4.1789   68.0020    4.1725   68.1456    3.8718   68.3444    4.2069   68.3340    4.2158   -0.0000   -0.0000
  1.210   68.4270    3.9458   68.1918    4.2345   68.2125    4.2281   68.3582    3.9253   68.5578    4.2638   68.5474    4.2727   -0.0000   -0.0000
  1.220   68.6429    4.0000   68.4054    4.2910   68.4261    4.2846   68.5740    3.9797   68.7743    4.3215   68.7639    4.3305   -0.0000   -0.0000
  1.230   68.8620    4.0551   68.6221    4.3484   68.6429    4.3420   68.7930    4.0350   68.9941    4.3802   68.9837    4.3892   -0.0000   -0.0000
  1.240   69.0844    4.1110   68.8420    4.4068   68.8628    4.4003   69.0153    4.0911   69.2171    4.4399   69.2067    4.4488   -0.0000   -0.0000
  1.250   69.3100    4.1678   69.0652    4.4660   69.0861    4.4596   69.2409    4.1481   69.4435    4.5004   69.4330    4.5094   -0.0000   -0.0000
  1.260   69.5391    4.2256   69.2918    4.5262   69.3126    4.5198   69.4698    4.2061   69.6732    4.5620   69.6627    4.5710   -0.0000   -0.0000
  1.270   69.7715    4.2843   69.5216    4.5875   69.5426    4.5810   69.7022    4.2650   69.9064    4.6246   69.8959    4.6335   -0.0000   -0.0000
  1.280   70.0074    4.3440   69.7550    4.6497   69.7759    4.6432   69.9380    4.3249   70.1430    4.6882   70.1325    4.6972   -0.0000   -0.0000
