# Macroscopic dielectric function obtained with the BS equation.
#  RPA L0 with KS energies and KS wavefunctions     LOCAL FIELD EFFECTS INCLUDED
# RESONANT-ONLY calculation
# Coulomb term constructed with full W(G1,G2)
# Scissor operator energy =  0.8000 [eV]
# Tolerance = -0.0010 0.0000
# npweps  = 113
# npwwfn  = 283
# nbands  = 8
# loband  = 2
# nkibz   = 3
# nkbz    = 8
# Lorentzian broadening =  0.0001 [eV]
# List of q-points for the optical limit:
# q =  0.938821, 0.000000, 0.000000, [Reduced coords] 
# q =  0.000000, 0.938821, 0.000000, [Reduced coords] 
# q =  0.000000, 0.000000, 0.938821, [Reduced coords] 
# q =  0.000000, 0.813043, 0.813043, [Reduced coords] 
# q =  0.813043, 0.000000, 0.813043, [Reduced coords] 
# q =  0.813043, 0.813043, 0.000000, [Reduced coords] 
# omega [eV]    RE(eps(q=1)) IM(eps(q=1) RE(eps(q=2) ) ... 
  0.000   54.7666    0.0000   54.7533    0.0000   54.7631    0.0000   54.7442    0.0000   54.8010    0.0000   54.8111    0.0000
  0.010   54.7671    0.0032   54.7538    0.0034   54.7637    0.0034   54.7447    0.0032   54.8015    0.0036   54.8116    0.0036
  0.020   54.7687    0.0064   54.7554    0.0069   54.7653    0.0069   54.7463    0.0064   54.8031    0.0072   54.8132    0.0072
  0.030   54.7714    0.0096   54.7581    0.0103   54.7679    0.0103   54.7490    0.0096   54.8058    0.0107   54.8159    0.0108
  0.040   54.7751    0.0129   54.7618    0.0138   54.7717    0.0137   54.7527    0.0128   54.8095    0.0143   54.8196    0.0144
  0.050   54.7799    0.0161   54.7666    0.0172   54.7765    0.0172   54.7575    0.0160   54.8143    0.0179   54.8244    0.0180
  0.060   54.7858    0.0193   54.7725    0.0207   54.7824    0.0206   54.7634    0.0192   54.8202    0.0215   54.8303    0.0215
  0.070   54.7927    0.0225   54.7794    0.0241   54.7893    0.0241   54.7703    0.0224   54.8272    0.0251   54.8373    0.0251
  0.080   54.8008    0.0258   54.7874    0.0276   54.7973    0.0275   54.7783    0.0256   54.8352    0.0287   54.8453    0.0287
  0.090   54.8098    0.0290   54.7965    0.0310   54.8064    0.0310   54.7874    0.0288   54.8443    0.0323   54.8544    0.0323
  0.100   54.8200    0.0322   54.8067    0.0345   54.8166    0.0344   54.7976    0.0320   54.8545    0.0359   54.8646    0.0360
  0.110   54.8312    0.0355   54.8179    0.0379   54.8278    0.0379   54.8088    0.0352   54.8657    0.0395   54.8758    0.0396
  0.120   54.8435    0.0387   54.8302    0.0414   54.8401    0.0413   54.8211    0.0384   54.8781    0.0431   54.8882    0.0432
  0.130   54.8569    0.0419   54.8436    0.0449   54.8535    0.0448   54.8345    0.0416   54.8915    0.0467   54.9016    0.0468
  0.140   54.8714    0.0452   54.8580    0.0483   54.8679    0.0483   54.8489    0.0448   54.9060    0.0503   54.9161    0.0504
  0.150   54.8869    0.0484   54.8736    0.0518   54.8835    0.0518   54.8645    0.0481   54.9215    0.0540   54.9317    0.0541
  0.160   54.9036    0.0517   54.8902    0.0553   54.9001    0.0552   54.8811    0.0513   54.9382    0.0576   54.9483    0.0577
  0.170   54.9213    0.0550   54.9079    0.0588   54.9178    0.0587   54.8988    0.0546   54.9559    0.0612   54.9661    0.0614
  0.180   54.9401    0.0583   54.9267    0.0623   54.9366    0.0622   54.9176    0.0578   54.9748    0.0649   54.9849    0.0650
  0.190   54.9600    0.0615   54.9465    0.0658   54.9565    0.0657   54.9375    0.0611   54.9947    0.0685   55.0048    0.0687
  0.200   54.9809    0.0648   54.9675    0.0693   54.9774    0.0693   54.9584    0.0643   55.0157    0.0722   55.0258    0.0723
  0.210   55.0030    0.0681   54.9896    0.0729   54.9995    0.0728   54.9805    0.0676   55.0378    0.0759   55.0479    0.0760
  0.220   55.0262    0.0714   55.0127    0.0764   55.0227    0.0763   55.0037    0.0709   55.0610    0.0795   55.0712    0.0797
  0.230   55.0505    0.0747   55.0370    0.0799   55.0469    0.0798   55.0279    0.0742   55.0853    0.0832   55.0955    0.0834
  0.240   55.0758    0.0781   55.0623    0.0835   55.0723    0.0834   55.0533    0.0775   55.1107    0.0869   55.1209    0.0871
  0.250   55.1023    0.0814   55.0888    0.0871   55.0988    0.0870   55.0798    0.0808   55.1373    0.0906   55.1474    0.0908
  0.260   55.1299    0.0847   55.1164    0.0906   55.1263    0.0905   55.1073    0.0841   55.1649    0.0944   55.1751    0.0945
  0.270   55.1586    0.0881   55.1451    0.0942   55.1550    0.0941   55.1360    0.0874   55.1937    0.0981   55.2038    0.0983
  0.280   55.1884    0.0914   55.1749    0.0978   55.1849    0.0977   55.1658    0.0908   55.2235    0.1018   55.2337    0.1020
  0.290   55.2193    0.0948   55.2058    0.1014   55.2158    0.1013   55.1967    0.0941   55.2545    0.1056   55.2647    0.1058
  0.300   55.2514    0.0982   55.2378    0.1050   55.2478    0.1049   55.2288    0.0975   55.2866    0.1094   55.2968    0.1096
  0.310   55.2846    0.1016   55.2710    0.1087   55.2810    0.1085   55.2620    0.1008   55.3199    0.1131   55.3301    0.1134
  0.320   55.3189    0.1050   55.3053    0.1123   55.3153    0.1122   55.2963    0.1042   55.3543    0.1169   55.3644    0.1172
  0.330   55.3544    0.1084   55.3407    0.1160   55.3508    0.1158   55.3317    0.1076   55.3898    0.1207   55.4000    0.1210
  0.340   55.3910    0.1119   55.3773    0.1196   55.3874    0.1195   55.3683    0.1110   55.4264    0.1246   55.4366    0.1248
  0.350   55.4287    0.1153   55.4150    0.1233   55.4251    0.1232   55.4060    0.1145   55.4643    0.1284   55.4745    0.1287
  0.360   55.4676    0.1188   55.4539    0.1270   55.4640    0.1269   55.4449    0.1179   55.5032    0.1323   55.5134    0.1325
  0.370   55.5077    0.1223   55.4939    0.1308   55.5040    0.1306   55.4850    0.1214   55.5433    0.1361   55.5536    0.1364
  0.380   55.5489    0.1258   55.5351    0.1345   55.5452    0.1343   55.5262    0.1248   55.5846    0.1400   55.5949    0.1403
  0.390   55.5913    0.1293   55.5775    0.1382   55.5876    0.1381   55.5685    0.1283   55.6271    0.1439   55.6373    0.1442
  0.400   55.6348    0.1328   55.6210    0.1420   55.6311    0.1418   55.6121    0.1318   55.6707    0.1478   55.6810    0.1481
  0.410   55.6795    0.1363   55.6657    0.1458   55.6759    0.1456   55.6568    0.1353   55.7155    0.1518   55.7258    0.1521
  0.420   55.7255    0.1399   55.7116    0.1496   55.7218    0.1494   55.7027    0.1389   55.7615    0.1557   55.7718    0.1561
  0.430   55.7726    0.1435   55.7587    0.1534   55.7689    0.1532   55.7498    0.1424   55.8087    0.1597   55.8190    0.1600
  0.440   55.8209    0.1471   55.8069    0.1573   55.8171    0.1571   55.7981    0.1460   55.8571    0.1637   55.8674    0.1640
  0.450   55.8704    0.1507   55.8564    0.1611   55.8666    0.1609   55.8475    0.1496   55.9067    0.1677   55.9170    0.1681
  0.460   55.9211    0.1543   55.9071    0.1650   55.9173    0.1648   55.8982    0.1532   55.9575    0.1718   55.9678    0.1721
  0.470   55.9730    0.1579   55.9590    0.1689   55.9692    0.1687   55.9501    0.1568   56.0095    0.1758   56.0198    0.1762
  0.480   56.0261    0.1616   56.0121    0.1728   56.0224    0.1726   56.0033    0.1604   56.0627    0.1799   56.0730    0.1803
  0.490   56.0805    0.1653   56.0665    0.1768   56.0767    0.1766   56.0576    0.1641   56.1172    0.1840   56.1275    0.1844
  0.500   56.1361    0.1690   56.1220    0.1807   56.1323    0.1805   56.1132    0.1678   56.1729    0.1882   56.1832    0.1885
  0.510   56.1930    0.1728   56.1789    0.1847   56.1892    0.1845   56.1700    0.1715   56.2299    0.1923   56.2402    0.1927
  0.520   56.2511    0.1765   56.2369    0.1887   56.2473    0.1885   56.2281    0.1752   56.2881    0.1965   56.2984    0.1969
  0.530   56.3105    0.1803   56.2963    0.1928   56.3066    0.1925   56.2875    0.1790   56.3476    0.2007   56.3579    0.2011
  0.540   56.3711    0.1841   56.3569    0.1968   56.3672    0.1966   56.3481    0.1828   56.4083    0.2049   56.4187    0.2053
  0.550   56.4330    0.1879   56.4188    0.2009   56.4291    0.2007   56.4100    0.1866   56.4704    0.2092   56.4807    0.2096
  0.560   56.4962    0.1918   56.4819    0.2050   56.4923    0.2048   56.4732    0.1904   56.5337    0.2135   56.5440    0.2139
  0.570   56.5607    0.1956   56.5464    0.2092   56.5568    0.2089   56.5376    0.1943   56.5983    0.2178   56.6086    0.2182
  0.580   56.6265    0.1995   56.6121    0.2133   56.6226    0.2131   56.6034    0.1981   56.6642    0.2221   56.6746    0.2226
  0.590   56.6936    0.2035   56.6792    0.2175   56.6896    0.2173   56.6705    0.2020   56.7314    0.2265   56.7418    0.2269
  0.600   56.7620    0.2074   56.7476    0.2217   56.7580    0.2215   56.7389    0.2060   56.7999    0.2309   56.8104    0.2313
  0.610   56.8318    0.2114   56.8173    0.2260   56.8278    0.2257   56.8086    0.2099   56.8698    0.2353   56.8802    0.2358
  0.620   56.9029    0.2154   56.8883    0.2303   56.8988    0.2300   56.8797    0.2139   56.9410    0.2398   56.9515    0.2402
  0.630   56.9753    0.2195   56.9607    0.2346   56.9713    0.2343   56.9521    0.2179   57.0136    0.2443   57.0241    0.2447
  0.640   57.0491    0.2235   57.0345    0.2389   57.0450    0.2387   57.0259    0.2220   57.0875    0.2488   57.0980    0.2493
  0.650   57.1243    0.2276   57.1096    0.2433   57.1202    0.2430   57.1010    0.2261   57.1629    0.2533   57.1733    0.2538
  0.660   57.2008    0.2318   57.1861    0.2477   57.1967    0.2474   57.1775    0.2302   57.2395    0.2579   57.2500    0.2584
  0.670   57.2788    0.2359   57.2640    0.2521   57.2746    0.2519   57.2554    0.2343   57.3176    0.2626   57.3281    0.2631
  0.680   57.3581    0.2401   57.3433    0.2566   57.3540    0.2563   57.3348    0.2385   57.3971    0.2672   57.4076    0.2677
  0.690   57.4389    0.2443   57.4240    0.2611   57.4347    0.2608   57.4155    0.2427   57.4780    0.2719   57.4885    0.2724
  0.700   57.5210    0.2486   57.5061    0.2657   57.5169    0.2654   57.4976    0.2469   57.5604    0.2767   57.5709    0.2772
  0.710   57.6047    0.2529   57.5897    0.2702   57.6005    0.2699   57.5812    0.2512   57.6441    0.2814   57.6547    0.2820
  0.720   57.6897    0.2572   57.6747    0.2749   57.6855    0.2746   57.6663    0.2555   57.7293    0.2862   57.7399    0.2868
  0.730   57.7763    0.2616   57.7612    0.2795   57.7720    0.2792   57.7528    0.2598   57.8160    0.2911   57.8266    0.2916
  0.740   57.8643    0.2660   57.8492    0.2842   57.8600    0.2839   57.8407    0.2642   57.9042    0.2960   57.9148    0.2965
  0.750   57.9538    0.2704   57.9386    0.2889   57.9495    0.2886   57.9302    0.2686   57.9939    0.3009   58.0045    0.3015
  0.760   58.0448    0.2749   58.0295    0.2937   58.0404    0.2934   58.0212    0.2731   58.0850    0.3059   58.0957    0.3065
  0.770   58.1373    0.2794   58.1220    0.2985   58.1329    0.2982   58.1136    0.2776   58.1777    0.3109   58.1883    0.3115
  0.780   58.2313    0.2840   58.2160    0.3034   58.2269    0.3031   58.2077    0.2821   58.2719    0.3160   58.2826    0.3165
  0.790   58.3269    0.2886   58.3115    0.3083   58.3225    0.3080   58.3032    0.2867   58.3677    0.3211   58.3783    0.3217
  0.800   58.4240    0.2932   58.4086    0.3132   58.4196    0.3129   58.4003    0.2913   58.4650    0.3262   58.4757    0.3268
  0.810   58.5227    0.2979   58.5072    0.3182   58.5182    0.3179   58.4990    0.2960   58.5639    0.3314   58.5746    0.3320
  0.820   58.6230    0.3026   58.6074    0.3233   58.6185    0.3229   58.5992    0.3007   58.6644    0.3367   58.6751    0.3373
  0.830   58.7249    0.3074   58.7093    0.3283   58.7204    0.3280   58.7011    0.3054   58.7665    0.3420   58.7772    0.3426
  0.840   58.8284    0.3122   58.8127    0.3335   58.8239    0.3331   58.8046    0.3102   58.8702    0.3473   58.8809    0.3479
  0.850   58.9336    0.3170   58.9178    0.3386   58.9290    0.3383   58.9097    0.3150   58.9755    0.3527   58.9863    0.3533
  0.860   59.0404    0.3219   59.0246    0.3439   59.0357    0.3435   59.0165    0.3199   59.0825    0.3582   59.0933    0.3588
  0.870   59.1488    0.3269   59.1330    0.3491   59.1442    0.3488   59.1249    0.3249   59.1912    0.3637   59.2020    0.3643
  0.880   59.2590    0.3319   59.2430    0.3545   59.2543    0.3541   59.2350    0.3299   59.3015    0.3692   59.3124    0.3699
  0.890   59.3708    0.3370   59.3548    0.3599   59.3661    0.3595   59.3468    0.3349   59.4136    0.3748   59.4244    0.3755
  0.900   59.4844    0.3421   59.4683    0.3653   59.4797    0.3649   59.4604    0.3400   59.5274    0.3805   59.5382    0.3812
  0.910   59.5997    0.3472   59.5836    0.3708   59.5949    0.3704   59.5756    0.3451   59.6429    0.3862   59.6538    0.3869
  0.920   59.7168    0.3524   59.7005    0.3763   59.7120    0.3760   59.6927    0.3503   59.7602    0.3920   59.7711    0.3927
  0.930   59.8356    0.3577   59.8193    0.3819   59.8308    0.3816   59.8115    0.3556   59.8793    0.3979   59.8902    0.3985
  0.940   59.9563    0.3630   59.9399    0.3876   59.9514    0.3872   59.9321    0.3609   60.0001    0.4038   60.0111    0.4045
  0.950   60.0787    0.3684   60.0622    0.3933   60.0738    0.3929   60.0545    0.3662   60.1228    0.4097   60.1338    0.4104
  0.960   60.2030    0.3738   60.1865    0.3991   60.1980    0.3987   60.1787    0.3716   60.2473    0.4158   60.2583    0.4165
  0.970   60.3291    0.3793   60.3125    0.4050   60.3241    0.4046   60.3048    0.3771   60.3737    0.4219   60.3847    0.4226
  0.980   60.4572    0.3849   60.4405    0.4109   60.4521    0.4105   60.4328    0.3827   60.5020    0.4280   60.5130    0.4288
  0.990   60.5871    0.3905   60.5703    0.4169   60.5820    0.4165   60.5627    0.3883   60.6322    0.4343   60.6432    0.4350
  1.000   60.7189    0.3962   60.7020    0.4229   60.7138    0.4225   60.6945    0.3939   60.7643    0.4406   60.7753    0.4413
  1.010   60.8527    0.4019   60.8357    0.4290   60.8475    0.4286   60.8282    0.3997   60.8983    0.4469   60.9094    0.4477
  1.020   60.9884    0.4077   60.9714    0.4352   60.9832    0.4348   60.9639    0.4054   61.0343    0.4534   61.0454    0.4542
  1.030   61.1262    0.4136   61.1090    0.4415   61.1209    0.4410   61.1016    0.4113   61.1723    0.4599   61.1834    0.4607
  1.040   61.2659    0.4196   61.2487    0.4478   61.2606    0.4474   61.2413    0.4172   61.3123    0.4665   61.3235    0.4673
  1.050   61.4077    0.4256   61.3904    0.4542   61.4023    0.4538   61.3831    0.4232   61.4544    0.4732   61.4656    0.4740
  1.060   61.5516    0.4317   61.5342    0.4607   61.5462    0.4602   61.5269    0.4293   61.5985    0.4799   61.6097    0.4807
  1.070   61.6975    0.4378   61.6800    0.4672   61.6920    0.4668   61.6728    0.4355   61.7448    0.4868   61.7560    0.4876
  1.080   61.8455    0.4441   61.8280    0.4739   61.8401    0.4734   61.8208    0.4417   61.8931    0.4937   61.9044    0.4945
  1.090   61.9957    0.4504   61.9781    0.4806   61.9902    0.4801   61.9709    0.4480   62.0436    0.5007   62.0549    0.5015
  1.100   62.1481    0.4568   62.1303    0.4874   62.1425    0.4869   62.1233    0.4544   62.1963    0.5078   62.2076    0.5086
  1.110   62.3027    0.4633   62.2848    0.4942   62.2970    0.4938   62.2778    0.4608   62.3512    0.5150   62.3625    0.5158
  1.120   62.4595    0.4698   62.4415    0.5012   62.4538    0.5007   62.4345    0.4674   62.5083    0.5222   62.5196    0.5231
  1.130   62.6185    0.4764   62.6004    0.5083   62.6128    0.5078   62.5935    0.4740   62.6676    0.5296   62.6790    0.5304
  1.140   62.7798    0.4832   62.7617    0.5154   62.7740    0.5149   62.7548    0.4807   62.8293    0.5370   62.8407    0.5379
  1.150   62.9435    0.4900   62.9252    0.5226   62.9376    0.5222   62.9184    0.4875   62.9933    0.5446   63.0047    0.5454
  1.160   63.1095    0.4969   63.0911    0.5300   63.1036    0.5295   63.0844    0.4944   63.1596    0.5522   63.1710    0.5531
  1.170   63.2778    0.5039   63.2594    0.5374   63.2719    0.5369   63.2527    0.5014   63.3283    0.5600   63.3398    0.5608
  1.180   63.4486    0.5109   63.4300    0.5449   63.4426    0.5444   63.4234    0.5085   63.4994    0.5678   63.5109    0.5687
  1.190   63.6219    0.5181   63.6031    0.5525   63.6158    0.5520   63.5966    0.5156   63.6730    0.5758   63.6845    0.5767
  1.200   63.7976    0.5254   63.7787    0.5602   63.7914    0.5597   63.7723    0.5229   63.8491    0.5838   63.8606    0.5847
  1.210   63.9758    0.5328   63.9568    0.5681   63.9696    0.5676   63.9505    0.5303   64.0277    0.5920   64.0393    0.5929
  1.220   64.1565    0.5402   64.1375    0.5760   64.1503    0.5755   64.1312    0.5377   64.2088    0.6003   64.2204    0.6012
  1.230   64.3399    0.5478   64.3207    0.5840   64.3336    0.5835   64.3145    0.5453   64.3925    0.6087   64.4042    0.6096
  1.240   64.5259    0.5555   64.5066    0.5922   64.5195    0.5917   64.5004    0.5530   64.5789    0.6172   64.5906    0.6181
  1.250   64.7145    0.5633   64.6951    0.6005   64.7081    0.6000   64.6890    0.5608   64.7679    0.6258   64.7797    0.6267
  1.260   64.9059    0.5712   64.8863    0.6088   64.8994    0.6083   64.8803    0.5687   64.9597    0.6346   64.9714    0.6355
  1.270   65.0999    0.5792   65.0803    0.6174   65.0934    0.6168   65.0743    0.5767   65.1542    0.6434   65.1659    0.6444
  1.280   65.2968    0.5873   65.2770    0.6260   65.2902    0.6255   65.2712    0.5848   65.3514    0.6524   65.3633    0.6534
  1.290   65.4965    0.5956   65.4765    0.6347   65.4898    0.6342   65.4708    0.5930   65.5516    0.6616   65.5634    0.6625
  1.300   65.6990    0.6040   65.6790    0.6436   65.6923    0.6431   65.6733    0.6014   65.7545    0.6709   65.7664    0.6718
  1.310   65.9045    0.6124   65.8843    0.6526   65.8977    0.6521   65.8787    0.6099   65.9604    0.6803   65.9723    0.6812
  1.320   66.1129    0.6211   66.0926    0.6618   66.1060    0.6612   66.0871    0.6185   66.1693    0.6898   66.1812    0.6908
  1.330   66.3243    0.6298   66.3038    0.6710   66.3173    0.6705   66.2985    0.6273   66.3812    0.6995   66.3931    0.7005
  1.340   66.5388    0.6387   66.5181    0.6805   66.5317    0.6799   66.5129    0.6362   66.5961    0.7093   66.6081    0.7103
  1.350   66.7564    0.6477   66.7356    0.6900   66.7492    0.6895   66.7304    0.6452   66.8141    0.7193   66.8262    0.7203
  1.360   66.9771    0.6569   66.9561    0.6997   66.9698    0.6992   66.9511    0.6544   67.0353    0.7294   67.0474    0.7304
  1.370   67.2010    0.6662   67.1799    0.7096   67.1937    0.7090   67.1749    0.6637   67.2597    0.7397   67.2718    0.7407
  1.380   67.4281    0.6756   67.4069    0.7196   67.4207    0.7190   67.4020    0.6731   67.4873    0.7502   67.4995    0.7512
  1.390   67.6586    0.6852   67.6372    0.7298   67.6511    0.7292   67.6324    0.6827   67.7183    0.7608   67.7305    0.7618
  1.400   67.8924    0.6950   67.8708    0.7401   67.8848    0.7395   67.8662    0.6925   67.9526    0.7716   67.9649    0.7726
  1.410   68.1296    0.7049   68.1078    0.7506   68.1219    0.7500   68.1034    0.7024   68.1903    0.7826   68.2026    0.7836
  1.420   68.3703    0.7150   68.3484    0.7612   68.3625    0.7607   68.3440    0.7125   68.4316    0.7937   68.4439    0.7947
  1.430   68.6145    0.7252   68.5924    0.7721   68.6067    0.7715   68.5882    0.7228   68.6763    0.8050   68.6887    0.8061
  1.440   68.8623    0.7356   68.8400    0.7831   68.8544    0.7825   68.8359    0.7332   68.9247    0.8165   68.9371    0.8176
  1.450   69.1137    0.7462   69.0913    0.7943   69.1057    0.7937   69.0873    0.7438   69.1767    0.8282   69.1891    0.8293
  1.460   69.3689    0.7569   69.3463    0.8057   69.3608    0.8051   69.3424    0.7545   69.4324    0.8401   69.4449    0.8412
  1.470   69.6278    0.7679   69.6050    0.8172   69.6196    0.8167   69.6013    0.7655   69.6919    0.8522   69.7045    0.8533
  1.480   69.8906    0.7790   69.8676    0.8290   69.8823    0.8284   69.8641    0.7766   69.9553    0.8645   69.9679    0.8656
