# Macroscopic dielectric function obtained with the BS equation.
#  RPA L0 with KS energies and KS wavefunctions     LOCAL FIELD EFFECTS INCLUDED
# RESONANT-ONLY calculation
# Coulomb term constructed with full W(G1,G2)
# Scissor operator energy =  0.8000 [eV]
# Tolerance = -0.0010 0.0000
# npweps  = 113
# npwwfn  = 283
# nbands  = 8
# loband  = 2
# nkibz   = 3
# nkbz    = 8
# Lorentzian broadening =  0.0001 [eV]
# List of q-points for the optical limit:
# q =  0.938821, 0.000000, 0.000000, [Reduced coords] 
# q =  0.000000, 0.938821, 0.000000, [Reduced coords] 
# q =  0.000000, 0.000000, 0.938821, [Reduced coords] 
# q =  0.000000, 0.813043, 0.813043, [Reduced coords] 
# q =  0.813043, 0.000000, 0.813043, [Reduced coords] 
# q =  0.813043, 0.813043, 0.000000, [Reduced coords] 
# omega [eV]    RE(eps(q=1)) IM(eps(q=1) RE(eps(q=2) ) ... 
  0.000   55.7308    0.0000   55.6769    0.0000   55.6882    0.0000   55.6939    0.0000   55.7849    0.0000   55.7929    0.0000
  0.010   55.7314    0.0087   55.6775    0.0093   55.6887    0.0093   55.6944    0.0087   55.7855    0.0094   55.7935    0.0094
  0.020   55.7331    0.0174   55.6792    0.0186   55.6904    0.0185   55.6961    0.0174   55.7872    0.0188   55.7951    0.0188
  0.030   55.7359    0.0261   55.6820    0.0278   55.6932    0.0278   55.6989    0.0260   55.7900    0.0282   55.7980    0.0283
  0.040   55.7398    0.0348   55.6859    0.0371   55.6972    0.0371   55.7029    0.0347   55.7939    0.0376   55.8019    0.0377
  0.050   55.7449    0.0435   55.6910    0.0464   55.7022    0.0463   55.7079    0.0434   55.7990    0.0470   55.8070    0.0471
  0.060   55.7511    0.0523   55.6972    0.0557   55.7084    0.0556   55.7141    0.0521   55.8052    0.0564   55.8132    0.0566
  0.070   55.7584    0.0610   55.7045    0.0650   55.7157    0.0649   55.7214    0.0608   55.8126    0.0659   55.8206    0.0660
  0.080   55.7669    0.0697   55.7129    0.0743   55.7241    0.0742   55.7299    0.0695   55.8210    0.0753   55.8290    0.0755
  0.090   55.7765    0.0785   55.7224    0.0836   55.7337    0.0835   55.7395    0.0782   55.8306    0.0847   55.8386    0.0849
  0.100   55.7872    0.0872   55.7331    0.0930   55.7444    0.0928   55.7502    0.0870   55.8414    0.0942   55.8494    0.0944
  0.110   55.7990    0.0960   55.7449    0.1023   55.7562    0.1022   55.7620    0.0957   55.8532    0.1037   55.8612    0.1039
  0.120   55.8120    0.1047   55.7579    0.1116   55.7691    0.1115   55.7750    0.1044   55.8663    0.1131   55.8743    0.1134
  0.130   55.8261    0.1135   55.7720    0.1210   55.7832    0.1209   55.7891    0.1132   55.8804    0.1226   55.8884    0.1229
  0.140   55.8414    0.1223   55.7872    0.1304   55.7984    0.1302   55.8043    0.1220   55.8957    0.1321   55.9037    0.1324
  0.150   55.8577    0.1311   55.8035    0.1398   55.8148    0.1396   55.8207    0.1308   55.9121    0.1417   55.9201    0.1420
  0.160   55.8753    0.1400   55.8210    0.1492   55.8323    0.1490   55.8382    0.1396   55.9297    0.1512   55.9377    0.1515
  0.170   55.8940    0.1488   55.8396    0.1586   55.8509    0.1584   55.8569    0.1484   55.9484    0.1607   55.9565    0.1611
  0.180   55.9138    0.1577   55.8594    0.1681   55.8707    0.1679   55.8767    0.1572   55.9683    0.1703   55.9763    0.1707
  0.190   55.9347    0.1666   55.8803    0.1776   55.8916    0.1773   55.8976    0.1661   55.9893    0.1799   55.9974    0.1803
  0.200   55.9569    0.1755   55.9024    0.1870   55.9137    0.1868   55.9197    0.1750   56.0115    0.1895   56.0195    0.1900
  0.210   55.9801    0.1844   55.9256    0.1966   55.9369    0.1963   55.9430    0.1839   56.0349    0.1992   56.0429    0.1996
  0.220   56.0046    0.1934   55.9500    0.2061   55.9613    0.2058   55.9674    0.1928   56.0594    0.2089   56.0674    0.2093
  0.230   56.0302    0.2024   55.9755    0.2157   55.9868    0.2154   55.9930    0.2018   56.0850    0.2186   56.0931    0.2190
  0.240   56.0569    0.2114   56.0022    0.2253   56.0135    0.2250   56.0197    0.2108   56.1118    0.2283   56.1199    0.2288
  0.250   56.0849    0.2204   56.0300    0.2349   56.0413    0.2346   56.0476    0.2198   56.1398    0.2380   56.1479    0.2385
  0.260   56.1140    0.2294   56.0590    0.2445   56.0704    0.2442   56.0767    0.2288   56.1690    0.2478   56.1771    0.2483
  0.270   56.1442    0.2385   56.0892    0.2542   56.1006    0.2539   56.1070    0.2379   56.1994    0.2576   56.2074    0.2582
  0.280   56.1757    0.2476   56.1206    0.2639   56.1319    0.2636   56.1384    0.2470   56.2309    0.2675   56.2390    0.2680
  0.290   56.2083    0.2568   56.1531    0.2737   56.1645    0.2733   56.1710    0.2561   56.2636    0.2773   56.2717    0.2779
  0.300   56.2421    0.2660   56.1869    0.2835   56.1982    0.2831   56.2048    0.2652   56.2975    0.2873   56.3056    0.2879
  0.310   56.2771    0.2752   56.2218    0.2933   56.2332    0.2929   56.2398    0.2744   56.3326    0.2972   56.3407    0.2978
  0.320   56.3133    0.2844   56.2579    0.3031   56.2693    0.3027   56.2760    0.2836   56.3690    0.3072   56.3770    0.3079
  0.330   56.3508    0.2937   56.2952    0.3130   56.3066    0.3126   56.3134    0.2929   56.4065    0.3172   56.4145    0.3179
  0.340   56.3894    0.3030   56.3337    0.3229   56.3451    0.3225   56.3520    0.3022   56.4452    0.3273   56.4533    0.3280
  0.350   56.4292    0.3124   56.3734    0.3329   56.3849    0.3325   56.3918    0.3115   56.4851    0.3374   56.4932    0.3381
  0.360   56.4702    0.3218   56.4144    0.3429   56.4258    0.3425   56.4328    0.3209   56.5263    0.3475   56.5344    0.3483
  0.370   56.5125    0.3312   56.4565    0.3530   56.4680    0.3525   56.4750    0.3303   56.5687    0.3577   56.5768    0.3585
  0.380   56.5560    0.3407   56.4999    0.3631   56.5114    0.3626   56.5185    0.3398   56.6123    0.3680   56.6204    0.3688
  0.390   56.6007    0.3503   56.5445    0.3732   56.5560    0.3728   56.5632    0.3493   56.6571    0.3783   56.6652    0.3791
  0.400   56.6467    0.3598   56.5904    0.3834   56.6019    0.3829   56.6091    0.3589   56.7032    0.3886   56.7113    0.3894
  0.410   56.6939    0.3695   56.6374    0.3937   56.6490    0.3932   56.6563    0.3685   56.7505    0.3990   56.7587    0.3998
  0.420   56.7424    0.3791   56.6858    0.4040   56.6973    0.4035   56.7047    0.3781   56.7991    0.4094   56.8073    0.4103
  0.430   56.7921    0.3889   56.7354    0.4143   56.7469    0.4138   56.7544    0.3878   56.8490    0.4199   56.8571    0.4208
  0.440   56.8431    0.3986   56.7862    0.4247   56.7978    0.4242   56.8054    0.3976   56.9001    0.4305   56.9083    0.4314
  0.450   56.8953    0.4084   56.8383    0.4352   56.8499    0.4346   56.8576    0.4073   56.9525    0.4411   56.9607    0.4420
  0.460   56.9489    0.4183   56.8917    0.4457   56.9033    0.4451   56.9111    0.4172   57.0062    0.4517   57.0144    0.4527
  0.470   57.0037    0.4283   56.9464    0.4562   56.9580    0.4557   56.9659    0.4271   57.0612    0.4625   57.0693    0.4634
  0.480   57.0598    0.4382   57.0024    0.4669   57.0140    0.4663   57.0220    0.4371   57.1175    0.4732   57.1256    0.4742
  0.490   57.1173    0.4483   57.0596    0.4776   57.0713    0.4770   57.0794    0.4471   57.1750    0.4841   57.1832    0.4851
  0.500   57.1760    0.4584   57.1182    0.4883   57.1299    0.4877   57.1381    0.4572   57.2339    0.4950   57.2421    0.4960
  0.510   57.2360    0.4686   57.1781    0.4991   57.1898    0.4985   57.1981    0.4673   57.2941    0.5060   57.3023    0.5070
  0.520   57.2974    0.4788   57.2393    0.5100   57.2510    0.5094   57.2594    0.4775   57.3557    0.5170   57.3639    0.5181
  0.530   57.3601    0.4891   57.3019    0.5210   57.3136    0.5203   57.3221    0.4878   57.4186    0.5281   57.4268    0.5292
  0.540   57.4242    0.4994   57.3657    0.5320   57.3775    0.5314   57.3861    0.4982   57.4828    0.5393   57.4910    0.5404
  0.550   57.4896    0.5099   57.4310    0.5431   57.4427    0.5424   57.4515    0.5086   57.5484    0.5505   57.5566    0.5517
  0.560   57.5564    0.5204   57.4976    0.5543   57.5093    0.5536   57.5182    0.5190   57.6154    0.5619   57.6236    0.5630
  0.570   57.6245    0.5309   57.5655    0.5655   57.5773    0.5648   57.5863    0.5296   57.6837    0.5733   57.6919    0.5744
  0.580   57.6940    0.5416   57.6348    0.5768   57.6467    0.5761   57.6558    0.5402   57.7534    0.5847   57.7617    0.5859
  0.590   57.7649    0.5523   57.7056    0.5882   57.7174    0.5875   57.7267    0.5509   57.8245    0.5963   57.8328    0.5975
  0.600   57.8373    0.5631   57.7777    0.5997   57.7895    0.5990   57.7990    0.5617   57.8970    0.6080   57.9053    0.6092
  0.610   57.9110    0.5740   57.8512    0.6113   57.8631    0.6105   57.8726    0.5725   57.9710    0.6197   57.9792    0.6209
  0.620   57.9861    0.5849   57.9262    0.6229   57.9381    0.6221   57.9477    0.5834   58.0463    0.6315   58.0546    0.6328
  0.630   58.0627    0.5959   58.0025    0.6346   58.0144    0.6339   58.0243    0.5945   58.1231    0.6434   58.1314    0.6447
  0.640   58.1408    0.6071   58.0803    0.6464   58.0923    0.6457   58.1023    0.6056   58.2014    0.6554   58.2097    0.6567
  0.650   58.2202    0.6183   58.1596    0.6583   58.1716    0.6576   58.1817    0.6167   58.2811    0.6675   58.2894    0.6688
  0.660   58.3012    0.6295   58.2403    0.6703   58.2523    0.6695   58.2626    0.6280   58.3622    0.6796   58.3706    0.6810
  0.670   58.3836    0.6409   58.3225    0.6824   58.3345    0.6816   58.3450    0.6394   58.4449    0.6919   58.4533    0.6933
  0.680   58.4675    0.6524   58.4062    0.6946   58.4183    0.6938   58.4289    0.6508   58.5291    0.7043   58.5374    0.7057
  0.690   58.5530    0.6640   58.4914    0.7069   58.5035    0.7061   58.5142    0.6624   58.6147    0.7168   58.6231    0.7182
  0.700   58.6399    0.6756   58.5781    0.7193   58.5902    0.7185   58.6011    0.6740   58.7019    0.7293   58.7103    0.7308
  0.710   58.7284    0.6874   58.6663    0.7318   58.6785    0.7309   58.6896    0.6857   58.7906    0.7420   58.7990    0.7435
  0.720   58.8184    0.6992   58.7561    0.7444   58.7683    0.7435   58.7795    0.6976   58.8809    0.7548   58.8893    0.7563
  0.730   58.9100    0.7112   58.8474    0.7571   58.8596    0.7562   58.8710    0.7095   58.9728    0.7677   58.9812    0.7692
  0.740   59.0031    0.7232   58.9403    0.7699   58.9525    0.7690   58.9641    0.7216   59.0662    0.7807   59.0746    0.7822
  0.750   59.0979    0.7354   59.0348    0.7828   59.0470    0.7819   59.0588    0.7337   59.1612    0.7938   59.1696    0.7954
  0.760   59.1942    0.7477   59.1308    0.7959   59.1431    0.7949   59.1551    0.7460   59.2578    0.8070   59.2662    0.8086
  0.770   59.2921    0.7601   59.2285    0.8090   59.2408    0.8081   59.2530    0.7583   59.3560    0.8204   59.3645    0.8220
  0.780   59.3917    0.7726   59.3278    0.8223   59.3401    0.8213   59.3525    0.7708   59.4558    0.8339   59.4643    0.8355
  0.790   59.4929    0.7852   59.4287    0.8357   59.4411    0.8347   59.4537    0.7834   59.5574    0.8475   59.5658    0.8491
  0.800   59.5958    0.7979   59.5313    0.8492   59.5437    0.8482   59.5565    0.7962   59.6605    0.8612   59.6690    0.8629
  0.810   59.7004    0.8108   59.6356    0.8629   59.6480    0.8619   59.6610    0.8090   59.7654    0.8751   59.7739    0.8768
  0.820   59.8066    0.8238   59.7415    0.8766   59.7540    0.8756   59.7672    0.8220   59.8720    0.8891   59.8805    0.8908
  0.830   59.9146    0.8369   59.8492    0.8906   59.8617    0.8895   59.8751    0.8351   59.9802    0.9032   59.9888    0.9049
  0.840   60.0243    0.8501   59.9586    0.9046   59.9711    0.9036   59.9847    0.8483   60.0902    0.9175   60.0988    0.9192
  0.850   60.1357    0.8635   60.0697    0.9188   60.0822    0.9178   60.0961    0.8617   60.2020    0.9319   60.2106    0.9336
  0.860   60.2489    0.8770   60.1826    0.9331   60.1951    0.9321   60.2092    0.8751   60.3155    0.9464   60.3241    0.9482
  0.870   60.3639    0.8907   60.2972    0.9476   60.3098    0.9465   60.3242    0.8888   60.4309    0.9611   60.4395    0.9629
  0.880   60.4807    0.9044   60.4137    0.9622   60.4263    0.9611   60.4409    0.9025   60.5480    0.9760   60.5566    0.9778
  0.890   60.5993    0.9184   60.5319    0.9770   60.5446    0.9759   60.5594    0.9165   60.6669    0.9910   60.6756    0.9928
  0.900   60.7198    0.9325   60.6520    0.9919   60.6647    0.9908   60.6798    0.9305   60.7877    1.0062   60.7964    1.0080
  0.910   60.8421    0.9467   60.7740    1.0070   60.7867    1.0059   60.8021    0.9447   60.9104    1.0215   60.9191    1.0234
  0.920   60.9663    0.9611   60.8978    1.0222   60.9106    1.0211   60.9262    0.9591   61.0350    1.0370   61.0437    1.0389
  0.930   61.0924    0.9756   61.0236    1.0377   61.0364    1.0365   61.0522    0.9736   61.1614    1.0526   61.1701    1.0546
  0.940   61.2204    0.9903   61.1512    1.0532   61.1641    1.0521   61.1802    0.9883   61.2898    1.0685   61.2986    1.0704
  0.950   61.3504    1.0052   61.2808    1.0690   61.2937    1.0678   61.3101    1.0032   61.4202    1.0845   61.4289    1.0864
  0.960   61.4823    1.0202   61.4123    1.0849   61.4253    1.0837   61.4420    1.0182   61.5525    1.1007   61.5613    1.1026
  0.970   61.6162    1.0354   61.5459    1.1010   61.5588    1.0998   61.5758    1.0334   61.6868    1.1170   61.6956    1.1190
  0.980   61.7522    1.0508   61.6814    1.1173   61.6944    1.1161   61.7117    1.0488   61.8232    1.1336   61.8320    1.1356
  0.990   61.8901    1.0663   61.8190    1.1338   61.8320    1.1326   61.8496    1.0643   61.9615    1.1503   61.9704    1.1524
  1.000   62.0302    1.0820   61.9586    1.1504   61.9717    1.1492   61.9896    1.0800   62.1020    1.1673   62.1109    1.1693
  1.010   62.1723    1.0979   62.1003    1.1673   62.1134    1.1661   62.1316    1.0959   62.2446    1.1844   62.2534    1.1865
  1.020   62.3165    1.1141   62.2441    1.1843   62.2573    1.1831   62.2758    1.1120   62.3892    1.2018   62.3981    1.2039
  1.030   62.4629    1.1304   62.3901    1.2016   62.4033    1.2004   62.4221    1.1283   62.5361    1.2193   62.5450    1.2214
  1.040   62.6115    1.1469   62.5382    1.2191   62.5514    1.2178   62.5706    1.1448   62.6851    1.2371   62.6940    1.2392
  1.050   62.7622    1.1636   62.6884    1.2368   62.7018    1.2355   62.7213    1.1615   62.8363    1.2550   62.8452    1.2572
  1.060   62.9152    1.1805   62.8409    1.2547   62.8543    1.2534   62.8742    1.1784   62.9897    1.2732   62.9987    1.2754
  1.070   63.0704    1.1976   62.9957    1.2728   63.0091    1.2715   63.0293    1.1956   63.1454    1.2917   63.1544    1.2939
  1.080   63.2279    1.2149   63.1527    1.2911   63.1661    1.2898   63.1867    1.2129   63.3033    1.3103   63.3124    1.3126
  1.090   63.3877    1.2325   63.3120    1.3097   63.3255    1.3084   63.3465    1.2304   63.4636    1.3292   63.4727    1.3315
  1.100   63.5498    1.2503   63.4737    1.3285   63.4872    1.3272   63.5085    1.2482   63.6263    1.3484   63.6353    1.3506
  1.110   63.7143    1.2683   63.6377    1.3476   63.6513    1.3462   63.6730    1.2662   63.7913    1.3678   63.8004    1.3700
  1.120   63.8813    1.2865   63.8041    1.3669   63.8177    1.3655   63.8398    1.2845   63.9587    1.3874   63.9678    1.3897
  1.130   64.0506    1.3050   63.9729    1.3864   63.9866    1.3851   64.0091    1.3030   64.1286    1.4073   64.1377    1.4096
  1.140   64.2224    1.3238   64.1442    1.4062   64.1579    1.4049   64.1808    1.3217   64.3009    1.4274   64.3101    1.4298
  1.150   64.3967    1.3427   64.3180    1.4263   64.3318    1.4249   64.3551    1.3407   64.4758    1.4479   64.4850    1.4502
  1.160   64.5736    1.3620   64.4943    1.4467   64.5081    1.4453   64.5318    1.3600   64.6532    1.4686   64.6624    1.4710
  1.170   64.7530    1.3815   64.6731    1.4673   64.6870    1.4659   64.7112    1.3795   64.8332    1.4896   64.8424    1.4920
  1.180   64.9351    1.4013   64.8546    1.4882   64.8686    1.4868   64.8932    1.3993   65.0158    1.5108   65.0250    1.5133
  1.190   65.1197    1.4213   65.0387    1.5094   65.0527    1.5080   65.0778    1.4194   65.2010    1.5324   65.2103    1.5349
  1.200   65.3071    1.4417   65.2255    1.5309   65.2395    1.5295   65.2651    1.4397   65.3890    1.5543   65.3983    1.5568
  1.210   65.4972    1.4623   65.4150    1.5527   65.4291    1.5512   65.4551    1.4604   65.5797    1.5765   65.5890    1.5790
  1.220   65.6901    1.4832   65.6072    1.5748   65.6214    1.5733   65.6479    1.4813   65.7731    1.5990   65.7825    1.6015
  1.230   65.8857    1.5044   65.8022    1.5972   65.8165    1.5957   65.8434    1.5025   65.9694    1.6218   65.9788    1.6243
  1.240   66.0842    1.5260   66.0001    1.6199   66.0144    1.6185   66.0419    1.5241   66.1685    1.6450   66.1780    1.6475
  1.250   66.2856    1.5478   66.2009    1.6430   66.2152    1.6415   66.2432    1.5459   66.3706    1.6684   66.3801    1.6710
  1.260   66.4899    1.5700   66.4045    1.6664   66.4189    1.6649   66.4474    1.5681   66.5756    1.6923   66.5851    1.6948
  1.270   66.6972    1.5925   66.6111    1.6902   66.6256    1.6887   66.6547    1.5907   66.7835    1.7165   66.7931    1.7191
  1.280   66.9075    1.6153   66.8208    1.7143   66.8353    1.7128   66.8649    1.6135   66.9945    1.7410   67.0041    1.7436
  1.290   67.1209    1.6385   67.0335    1.7388   67.0481    1.7372   67.0782    1.6367   67.2086    1.7660   67.2182    1.7686
  1.300   67.3374    1.6621   67.2493    1.7636   67.2639    1.7621   67.2947    1.6603   67.4258    1.7913   67.4354    1.7939
  1.310   67.5571    1.6860   67.4682    1.7888   67.4830    1.7873   67.5143    1.6842   67.6462    1.8170   67.6559    1.8196
  1.320   67.7800    1.7103   67.6904    1.8144   67.7052    1.8129   67.7371    1.7086   67.8698    1.8430   67.8795    1.8457
  1.330   68.0062    1.7349   67.9158    1.8404   67.9307    1.8389   67.9632    1.7332   68.0967    1.8695   68.1065    1.8722
  1.340   68.2356    1.7600   68.1445    1.8669   68.1595    1.8653   68.1926    1.7583   68.3269    1.8965   68.3367    1.8992
  1.350   68.4685    1.7854   68.3766    1.8937   68.3916    1.8921   68.4254    1.7838   68.5606    1.9238   68.5704    1.9265
  1.360   68.7048    1.8113   68.6121    1.9210   68.6272    1.9194   68.6616    1.8097   68.7976    1.9516   68.8075    1.9543
  1.370   68.9446    1.8375   68.8511    1.9487   68.8662    1.9471   68.9013    1.8360   69.0382    1.9798   69.0481    1.9826
  1.380   69.1879    1.8643   69.0936    1.9768   69.1088    1.9752   69.1445    1.8628   69.2823    2.0085   69.2923    2.0113
  1.390   69.4348    1.8914   69.3397    2.0054   69.3550    2.0038   69.3914    1.8900   69.5301    2.0377   69.5401    2.0405
  1.400   69.6854    1.9190   69.5895    2.0345   69.6048    2.0329   69.6419    1.9176   69.7815    2.0673   69.7916    2.0701
  1.410   69.9397    1.9471   69.8429    2.0641   69.8583    2.0624   69.8962    1.9457   70.0367    2.0975   70.0468    2.1003
  1.420   70.1979    1.9756   70.1002    2.0941   70.1156    2.0925   70.1543    1.9743   70.2957    2.1281   70.3058    2.1310
  1.430   70.4598    2.0046   70.3613    2.1247   70.3768    2.1230   70.4162    2.0034   70.5586    2.1593   70.5687    2.1621
  1.440   70.7257    2.0342   70.6263    2.1558   70.6419    2.1541   70.6820    2.0330   70.8254    2.1910   70.8356    2.1939
  1.450   70.9957    2.0642   70.8952    2.1874   70.9109    2.1857   70.9519    2.0631   71.0962    2.2233   71.1065    2.2261
  1.460   71.2696    2.0948   71.1683    2.2196   71.1841    2.2179   71.2258    2.0937   71.3712    2.2561   71.3814    2.2590
  1.470   71.5478    2.1258   71.4454    2.2523   71.4613    2.2506   71.5039    2.1249   71.6502    2.2895   71.6606    2.2924
  1.480   71.8301    2.1575   71.7268    2.2856   71.7427    2.2839   71.7862    2.1566   71.9335    2.3235   71.9439    2.3264
