# Macroscopic dielectric function obtained with the BS equation.
#  RPA L0 with KS energies and KS wavefunctions     LOCAL FIELD EFFECTS INCLUDED
# RESONANT-ONLY calculation
# Coulomb term constructed with full W(G1,G2)
# Scissor operator energy =  0.8000 [eV]
# Tolerance = -0.0010 0.0000
# npweps  = 113
# npwwfn  = 259
# nbands  = 8
# loband  = 2
# nkibz   = 3
# nkbz    = 8
# Lorentzian broadening =  0.0001 [eV]
# List of q-points for the optical limit:
# q =  0.938821, 0.000000, 0.000000, [Reduced coords] 
# q =  0.000000, 0.938821, 0.000000, [Reduced coords] 
# q =  0.000000, 0.000000, 0.938821, [Reduced coords] 
# q =  0.000000, 0.813043, 0.813043, [Reduced coords] 
# q =  0.813043, 0.000000, 0.813043, [Reduced coords] 
# q =  0.813043, 0.813043, 0.000000, [Reduced coords] 
# omega [eV]    RE(eps(q=1)) IM(eps(q=1) RE(eps(q=2) ) ... 
  0.000   57.6238    0.0000   57.4703    0.0000   57.4848    0.0000   57.5568    0.0000   57.7073    0.0000   57.7102    0.0000
  0.010   57.6244    0.0215   57.4709    0.0229   57.4854    0.0228   57.5574    0.0215   57.7079    0.0231   57.7108    0.0232
  0.020   57.6263    0.0430   57.4727    0.0457   57.4872    0.0457   57.5593    0.0430   57.7097    0.0462   57.7127    0.0463
  0.030   57.6294    0.0646   57.4758    0.0686   57.4903    0.0685   57.5624    0.0645   57.7128    0.0694   57.7158    0.0695
  0.040   57.6337    0.0861   57.4801    0.0915   57.4946    0.0914   57.5667    0.0860   57.7172    0.0925   57.7201    0.0927
  0.050   57.6393    0.1077   57.4856    0.1144   57.5001    0.1143   57.5723    0.1075   57.7228    0.1156   57.7257    0.1158
  0.060   57.6461    0.1292   57.4924    0.1373   57.5069    0.1372   57.5791    0.1291   57.7296    0.1388   57.7325    0.1390
  0.070   57.6542    0.1508   57.5004    0.1602   57.5149    0.1601   57.5871    0.1506   57.7377    0.1620   57.7406    0.1623
  0.080   57.6634    0.1724   57.5096    0.1832   57.5241    0.1830   57.5964    0.1722   57.7470    0.1852   57.7499    0.1855
  0.090   57.6740    0.1940   57.5200    0.2062   57.5345    0.2059   57.6069    0.1938   57.7576    0.2084   57.7605    0.2088
  0.100   57.6858    0.2157   57.5317    0.2292   57.5462    0.2289   57.6187    0.2154   57.7694    0.2316   57.7723    0.2321
  0.110   57.6988    0.2374   57.5446    0.2522   57.5592    0.2519   57.6317    0.2370   57.7825    0.2549   57.7854    0.2554
  0.120   57.7131    0.2591   57.5588    0.2753   57.5733    0.2750   57.6459    0.2587   57.7968    0.2782   57.7997    0.2787
  0.130   57.7286    0.2808   57.5742    0.2984   57.5887    0.2980   57.6614    0.2804   57.8123    0.3016   57.8153    0.3021
  0.140   57.7454    0.3026   57.5908    0.3215   57.6054    0.3212   57.6782    0.3022   57.8292    0.3250   57.8321    0.3256
  0.150   57.7634    0.3244   57.6087    0.3447   57.6232    0.3443   57.6962    0.3240   57.8473    0.3484   57.8502    0.3490
  0.160   57.7827    0.3463   57.6278    0.3679   57.6424    0.3675   57.7154    0.3458   57.8666    0.3719   57.8695    0.3726
  0.170   57.8032    0.3682   57.6482    0.3912   57.6627    0.3908   57.7360    0.3677   57.8872    0.3954   57.8901    0.3961
  0.180   57.8250    0.3902   57.6698    0.4145   57.6844    0.4141   57.7577    0.3897   57.9091    0.4190   57.9120    0.4198
  0.190   57.8481    0.4122   57.6927    0.4379   57.7073    0.4374   57.7808    0.4116   57.9322    0.4427   57.9352    0.4435
  0.200   57.8724    0.4343   57.7168    0.4614   57.7314    0.4609   57.8051    0.4337   57.9566    0.4664   57.9596    0.4672
  0.210   57.8980    0.4564   57.7422    0.4849   57.7568    0.4843   57.8307    0.4558   57.9823    0.4901   57.9853    0.4910
  0.220   57.9249    0.4786   57.7689    0.5084   57.7835    0.5079   57.8575    0.4779   58.0093    0.5140   58.0122    0.5149
  0.230   57.9531    0.5008   57.7968    0.5321   57.8114    0.5315   57.8856    0.5002   58.0376    0.5379   58.0405    0.5388
  0.240   57.9825    0.5232   57.8260    0.5558   57.8406    0.5552   57.9150    0.5225   58.0671    0.5618   58.0700    0.5628
  0.250   58.0132    0.5456   57.8565    0.5795   57.8711    0.5789   57.9457    0.5448   58.0979    0.5859   58.1009    0.5869
  0.260   58.0453    0.5680   57.8882    0.6034   57.9029    0.6028   57.9777    0.5673   58.1300    0.6100   58.1330    0.6111
  0.270   58.0786    0.5906   57.9213    0.6273   57.9359    0.6267   58.0110    0.5898   58.1635    0.6342   58.1664    0.6353
  0.280   58.1132    0.6132   57.9556    0.6514   57.9702    0.6507   58.0456    0.6124   58.1982    0.6585   58.2011    0.6597
  0.290   58.1491    0.6359   57.9912    0.6755   58.0059    0.6747   58.0814    0.6351   58.2342    0.6829   58.2372    0.6841
  0.300   58.1863    0.6587   58.0281    0.6997   58.0428    0.6989   58.1186    0.6579   58.2716    0.7074   58.2745    0.7086
  0.310   58.2249    0.6816   58.0664    0.7240   58.0810    0.7232   58.1571    0.6807   58.3102    0.7319   58.3132    0.7332
  0.320   58.2647    0.7046   58.1059    0.7484   58.1206    0.7476   58.1969    0.7037   58.3502    0.7566   58.3532    0.7579
  0.330   58.3059    0.7276   58.1467    0.7729   58.1614    0.7720   58.2380    0.7267   58.3915    0.7814   58.3945    0.7827
  0.340   58.3484    0.7508   58.1889    0.7975   58.2036    0.7966   58.2805    0.7499   58.4342    0.8063   58.4371    0.8077
  0.350   58.3923    0.7741   58.2324    0.8222   58.2471    0.8213   58.3243    0.7731   58.4782    0.8313   58.4811    0.8327
  0.360   58.4375    0.7975   58.2772    0.8470   58.2919    0.8461   58.3695    0.7965   58.5235    0.8564   58.5265    0.8579
  0.370   58.4840    0.8210   58.3233    0.8719   58.3381    0.8710   58.4159    0.8200   58.5702    0.8816   58.5732    0.8831
  0.380   58.5319    0.8446   58.3708    0.8970   58.3856    0.8960   58.4638    0.8436   58.6183    0.9070   58.6212    0.9085
  0.390   58.5812    0.8684   58.4197    0.9222   58.4345    0.9212   58.5130    0.8673   58.6677    0.9324   58.6706    0.9340
  0.400   58.6318    0.8922   58.4699    0.9475   58.4847    0.9465   58.5636    0.8911   58.7185    0.9580   58.7214    0.9597
  0.410   58.6838    0.9162   58.5215    0.9729   58.5363    0.9719   58.6155    0.9151   58.7707    0.9838   58.7736    0.9855
  0.420   58.7372    0.9403   58.5744    0.9985   58.5892    0.9974   58.6688    0.9392   58.8242    1.0097   58.8272    1.0114
  0.430   58.7920    0.9645   58.6287    1.0242   58.6436    1.0231   58.7236    0.9634   58.8792    1.0357   58.8822    1.0374
  0.440   58.8482    0.9889   58.6845    1.0500   58.6993    1.0489   58.7797    0.9877   58.9355    1.0618   58.9385    1.0636
  0.450   58.9058    1.0134   58.7416    1.0761   58.7564    1.0749   58.8372    1.0122   58.9933    1.0882   58.9963    1.0900
  0.460   58.9648    1.0381   58.8001    1.1022   58.8150    1.1010   58.8961    1.0369   59.0525    1.1146   59.0555    1.1165
  0.470   59.0253    1.0629   58.8600    1.1285   58.8749    1.1273   58.9565    1.0617   59.1132    1.1412   59.1161    1.1432
  0.480   59.0871    1.0879   58.9213    1.1550   58.9363    1.1538   59.0183    1.0866   59.1752    1.1680   59.1782    1.1700
  0.490   59.1504    1.1130   58.9841    1.1816   58.9991    1.1804   59.0815    1.1117   59.2387    1.1950   59.2417    1.1970
  0.500   59.2152    1.1383   59.0483    1.2084   59.0633    1.2071   59.1462    1.1370   59.3037    1.2221   59.3067    1.2242
  0.510   59.2814    1.1637   59.1140    1.2354   59.1290    1.2341   59.2124    1.1624   59.3701    1.2494   59.3731    1.2515
  0.520   59.3491    1.1894   59.1811    1.2625   59.1961    1.2612   59.2800    1.1880   59.4380    1.2769   59.4411    1.2790
  0.530   59.4183    1.2152   59.2497    1.2899   59.2647    1.2885   59.3491    1.2138   59.5074    1.3046   59.5105    1.3068
  0.540   59.4889    1.2411   59.3197    1.3174   59.3348    1.3160   59.4196    1.2397   59.5783    1.3324   59.5813    1.3347
  0.550   59.5611    1.2673   59.3913    1.3451   59.4063    1.3437   59.4917    1.2659   59.6507    1.3605   59.6538    1.3628
  0.560   59.6348    1.2936   59.4643    1.3730   59.4794    1.3716   59.5653    1.2922   59.7246    1.3888   59.7277    1.3911
  0.570   59.7100    1.3201   59.5389    1.4011   59.5540    1.3996   59.6404    1.3187   59.8001    1.4172   59.8031    1.4196
  0.580   59.7867    1.3469   59.6149    1.4294   59.6301    1.4279   59.7171    1.3454   59.8771    1.4459   59.8801    1.4483
  0.590   59.8650    1.3738   59.6925    1.4579   59.7077    1.4564   59.7953    1.3723   59.9556    1.4748   59.9586    1.4772
  0.600   59.9448    1.4009   59.7717    1.4866   59.7869    1.4851   59.8750    1.3994   60.0357    1.5039   60.0387    1.5063
  0.610   60.0263    1.4283   59.8524    1.5156   59.8676    1.5140   59.9563    1.4268   60.1174    1.5332   60.1204    1.5357
  0.620   60.1092    1.4559   59.9346    1.5448   59.9499    1.5432   60.0392    1.4543   60.2006    1.5628   60.2037    1.5653
  0.630   60.1938    1.4836   60.0185    1.5742   60.0337    1.5726   60.1237    1.4821   60.2855    1.5926   60.2885    1.5951
  0.640   60.2800    1.5116   60.1039    1.6038   60.1192    1.6022   60.2098    1.5101   60.3719    1.6226   60.3750    1.6252
  0.650   60.3678    1.5399   60.1910    1.6337   60.2063    1.6320   60.2975    1.5383   60.4600    1.6529   60.4631    1.6555
  0.660   60.4573    1.5684   60.2796    1.6638   60.2950    1.6622   60.3869    1.5668   60.5498    1.6834   60.5529    1.6861
  0.670   60.5484    1.5971   60.3699    1.6942   60.3853    1.6925   60.4778    1.5955   60.6412    1.7142   60.6443    1.7170
  0.680   60.6411    1.6261   60.4619    1.7249   60.4772    1.7231   60.5705    1.6245   60.7342    1.7453   60.7373    1.7481
  0.690   60.7356    1.6553   60.5555    1.7558   60.5709    1.7540   60.6648    1.6537   60.8290    1.7766   60.8321    1.7794
  0.700   60.8317    1.6848   60.6508    1.7869   60.6662    1.7852   60.7609    1.6831   60.9254    1.8082   60.9285    1.8111
  0.710   60.9295    1.7145   60.7477    1.8184   60.7632    1.8166   60.8586    1.7129   61.0236    1.8401   61.0267    1.8430
  0.720   61.0291    1.7445   60.8464    1.8501   60.8619    1.8483   60.9580    1.7429   61.1235    1.8723   61.1266    1.8752
  0.730   61.1304    1.7749   60.9468    1.8822   60.9623    1.8803   61.0592    1.7732   61.2251    1.9048   61.2282    1.9078
  0.740   61.2335    1.8054   61.0489    1.9145   61.0645    1.9126   61.1622    1.8038   61.3285    1.9376   61.3316    1.9406
  0.750   61.3383    1.8363   61.1528    1.9471   61.1684    1.9452   61.2669    1.8346   61.4336    1.9707   61.4368    1.9737
  0.760   61.4449    1.8675   61.2585    1.9801   61.2741    1.9781   61.3734    1.8658   61.5406    2.0041   61.5437    2.0072
  0.770   61.5533    1.8990   61.3659    2.0133   61.3816    2.0114   61.4817    1.8973   61.6494    2.0378   61.6525    2.0409
  0.780   61.6636    1.9307   61.4752    2.0469   61.4908    2.0449   61.5918    1.9291   61.7600    2.0719   61.7631    2.0750
  0.790   61.7757    1.9629   61.5863    2.0808   61.6020    2.0788   61.7038    1.9612   61.8724    2.1063   61.8756    2.1095
  0.800   61.8896    1.9953   61.6992    2.1151   61.7149    2.1130   61.8176    1.9936   61.9868    2.1410   61.9899    2.1443
  0.810   62.0055    2.0280   61.8140    2.1496   61.8297    2.1476   61.9333    2.0264   62.1030    2.1761   62.1062    2.1794
  0.820   62.1232    2.0611   61.9306    2.1846   61.9464    2.1825   62.0509    2.0595   62.2211    2.2116   62.2243    2.2149
  0.830   62.2428    2.0946   62.0492    2.2199   62.0650    2.2178   62.1705    2.0929   62.3411    2.2474   62.3443    2.2508
  0.840   62.3644    2.1284   62.1696    2.2556   62.1855    2.2534   62.2919    2.1267   62.4631    2.2836   62.4663    2.2870
  0.850   62.4880    2.1626   62.2921    2.2916   62.3080    2.2895   62.4153    2.1609   62.5871    2.3202   62.5903    2.3237
  0.860   62.6135    2.1971   62.4164    2.3281   62.4324    2.3259   62.5407    2.1954   62.7130    2.3572   62.7162    2.3607
  0.870   62.7411    2.2320   62.5428    2.3649   62.5588    2.3627   62.6681    2.2304   62.8410    2.3946   62.8442    2.3982
  0.880   62.8706    2.2673   62.6712    2.4021   62.6872    2.3999   62.7976    2.2657   62.9709    2.4324   62.9742    2.4360
  0.890   63.0022    2.3030   62.8015    2.4398   62.8176    2.4375   62.9290    2.3014   63.1030    2.4707   63.1062    2.4743
  0.900   63.1359    2.3391   62.9340    2.4779   62.9501    2.4756   63.0626    2.3375   63.2371    2.5093   63.2404    2.5130
  0.910   63.2717    2.3756   63.0685    2.5164   63.0846    2.5140   63.1982    2.3740   63.3733    2.5484   63.3766    2.5521
  0.920   63.4096    2.4126   63.2051    2.5553   63.2212    2.5530   63.3360    2.4110   63.5117    2.5880   63.5150    2.5917
  0.930   63.5496    2.4500   63.3438    2.5947   63.3600    2.5923   63.4759    2.4484   63.6522    2.6280   63.6555    2.6318
  0.940   63.6918    2.4878   63.4847    2.6345   63.5009    2.6321   63.6180    2.4862   63.7948    2.6685   63.7982    2.6723
  0.950   63.8362    2.5260   63.6277    2.6749   63.6440    2.6724   63.7622    2.5245   63.9397    2.7095   63.9431    2.7133
  0.960   63.9829    2.5648   63.7730    2.7156   63.7893    2.7132   63.9087    2.5632   64.0868    2.7509   64.0902    2.7548
  0.970   64.1317    2.6040   63.9204    2.7569   63.9368    2.7545   64.0574    2.6025   64.2362    2.7929   64.2395    2.7968
  0.980   64.2829    2.6436   64.0701    2.7987   64.0865    2.7962   64.2084    2.6422   64.3878    2.8354   64.3912    2.8393
  0.990   64.4363    2.6838   64.2221    2.8410   64.2385    2.8385   64.3617    2.6824   64.5418    2.8784   64.5452    2.8823
  1.000   64.5921    2.7245   64.3764    2.8839   64.3929    2.8813   64.5174    2.7231   64.6981    2.9219   64.7015    2.9259
  1.010   64.7503    2.7657   64.5330    2.9272   64.5495    2.9246   64.6754    2.7643   64.8567    2.9660   64.8602    2.9701
  1.020   64.9108    2.8074   64.6920    2.9711   64.7086    2.9685   64.8358    2.8061   65.0178    3.0106   65.0213    3.0147
  1.030   65.0738    2.8497   64.8534    3.0156   64.8700    3.0130   64.9986    2.8484   65.1813    3.0559   65.1848    3.0600
  1.040   65.2392    2.8925   65.0172    3.0606   65.0338    3.0580   65.1639    2.8912   65.3473    3.1017   65.3507    3.1059
  1.050   65.4071    2.9359   65.1835    3.1063   65.2002    3.1036   65.3316    2.9346   65.5157    3.1481   65.5192    3.1523
  1.060   65.5775    2.9798   65.3522    3.1525   65.3690    3.1498   65.5019    2.9786   65.6867    3.1951   65.6902    3.1994
  1.070   65.7505    3.0244   65.5235    3.1993   65.5403    3.1966   65.6747    3.0232   65.8603    3.2428   65.8638    3.2471
  1.080   65.9261    3.0695   65.6973    3.2468   65.7142    3.2440   65.8501    3.0684   66.0364    3.2911   66.0400    3.2954
  1.090   66.1043    3.1153   65.8738    3.2949   65.8906    3.2921   66.0282    3.1142   66.2152    3.3400   66.2187    3.3444
  1.100   66.2851    3.1617   66.0528    3.3437   66.0697    3.3409   66.2089    3.1607   66.3966    3.3897   66.4002    3.3941
  1.110   66.4687    3.2088   66.2345    3.3931   66.2515    3.3903   66.3922    3.2078   66.5808    3.4400   66.5844    3.4444
  1.120   66.6549    3.2565   66.4190    3.4432   66.4360    3.4404   66.5784    3.2556   66.7677    3.4910   66.7713    3.4955
  1.130   66.8440    3.3049   66.6061    3.4940   66.6232    3.4912   66.7673    3.3040   66.9573    3.5428   66.9610    3.5473
  1.140   67.0358    3.3539   66.7960    3.5456   66.8131    3.5427   66.9590    3.3531   67.1498    3.5953   67.1535    3.5998
  1.150   67.2306    3.4037   66.9888    3.5979   67.0059    3.5949   67.1535    3.4030   67.3452    3.6485   67.3489    3.6531
  1.160   67.4282    3.4542   67.1844    3.6509   67.2016    3.6479   67.3510    3.4536   67.5434    3.7025   67.5472    3.7071
  1.170   67.6287    3.5055   67.3829    3.7047   67.4001    3.7017   67.5513    3.5049   67.7446    3.7573   67.7484    3.7620
  1.180   67.8322    3.5575   67.5843    3.7593   67.6016    3.7563   67.7547    3.5570   67.9488    3.8129   67.9526    3.8176
  1.190   68.0388    3.6103   67.7887    3.8147   67.8061    3.8116   67.9611    3.6099   68.1561    3.8694   68.1598    3.8741
  1.200   68.2484    3.6639   67.9961    3.8709   68.0136    3.8678   68.1705    3.6636   68.3664    3.9267   68.3702    3.9314
  1.210   68.4611    3.7183   68.2067    3.9279   68.2241    3.9248   68.3831    3.7181   68.5798    3.9848   68.5836    3.9896
  1.220   68.6770    3.7736   68.4203    3.9859   68.4378    3.9827   68.5988    3.7734   68.7964    4.0439   68.8002    4.0487
  1.230   68.8961    3.8297   68.6371    4.0447   68.6547    4.0415   68.8178    3.8296   69.0162    4.1039   69.0201    4.1087
  1.240   69.1184    3.8867   68.8571    4.1044   68.8747    4.1012   69.0399    3.8867   69.2393    4.1648   69.2432    4.1696
  1.250   69.3441    3.9446   69.0804    4.1651   69.0981    4.1619   69.2655    3.9447   69.4657    4.2266   69.4696    4.2315
  1.260   69.5731    4.0034   69.3070    4.2267   69.3247    4.2234   69.4943    4.0036   69.6955    4.2894   69.6994    4.2943
  1.270   69.8056    4.0631   69.5370    4.2892   69.5547    4.2860   69.7266    4.0635   69.9287    4.3533   69.9327    4.3582
  1.280   70.0415    4.1238   69.7703    4.3528   69.7882    4.3495   69.9623    4.1243   70.1654    4.4181   70.1694    4.4231
  1.290   70.2809    4.1855   70.0072    4.4174   70.0251    4.4141   70.2016    4.1861   70.4056    4.4841   70.4097    4.4891
  1.300   70.5239    4.2482   70.2476    4.4831   70.2656    4.4797   70.4445    4.2490   70.6494    4.5511   70.6535    4.5561
  1.310   70.7706    4.3120   70.4916    4.5498   70.5096    4.5464   70.6910    4.3129   70.8969    4.6192   70.9010    4.6242
  1.320   71.0210    4.3768   70.7392    4.6176   70.7573    4.6143   70.9412    4.3778   71.1481    4.6884   71.1523    4.6935
  1.330   71.2751    4.4428   70.9906    4.6866   71.0087    4.6832   71.1952    4.4439   71.4030    4.7588   71.4073    4.7639
  1.340   71.5330    4.5098   71.2457    4.7567   71.2639    4.7533   71.4530    4.5111   71.6618    4.8304   71.6661    4.8356
  1.350   71.7949    4.5780   71.5047    4.8280   71.5229    4.8246   71.7147    4.5795   71.9245    4.9032   71.9288    4.9084
  1.360   72.0607    4.6474   71.7675    4.9005   71.7858    4.8971   71.9803    4.6490   72.1912    4.9773   72.1956    4.9825
  1.370   72.3305    4.7180   72.0343    4.9743   72.0527    4.9708   72.2500    4.7198   72.4619    5.0527   72.4663    5.0579
  1.380   72.6044    4.7898   72.3052    5.0494   72.3236    5.0459   72.5238    4.7918   72.7368    5.1294   72.7412    5.1346
  1.390   72.8825    4.8629   72.5801    5.1257   72.5987    5.1222   72.8017    4.8651   73.0158    5.2074   73.0202    5.2127
  1.400   73.1649    4.9373   72.8593    5.2035   72.8779    5.1999   73.0839    4.9397   73.2990    5.2869   73.3035    5.2921
  1.410   73.4515    5.0131   73.1427    5.2826   73.1613    5.2790   73.3704    5.0156   73.5866    5.3677   73.5912    5.3730
  1.420   73.7426    5.0902   73.4304    5.3631   73.4491    5.3595   73.6613    5.0930   73.8786    5.4501   73.8832    5.4554
  1.430   74.0381    5.1688   73.7225    5.4451   73.7413    5.4415   73.9567    5.1718   74.1751    5.5339   74.1798    5.5393
  1.440   74.3382    5.2488   74.0191    5.5286   74.0379    5.5249   74.2566    5.2520   74.4761    5.6193   74.4809    5.6247
  1.450   74.6429    5.3303   74.3203    5.6136   74.3392    5.6099   74.5612    5.3337   74.7818    5.7063   74.7866    5.7116
  1.460   74.9523    5.4133   74.6261    5.7002   74.6451    5.6965   74.8705    5.4170   75.0923    5.7949   75.0971    5.8003
  1.470   75.2665    5.4979   74.9366    5.7884   74.9557    5.7847   75.1846    5.5019   75.4075    5.8852   75.4124    5.8906
  1.480   75.5857    5.5841   75.2520    5.8783   75.2711    5.8746   75.5036    5.5884   75.7277    5.9772   75.7327    5.9826
